Gypsum optical constants presented in Roush et al. (2007)
JGR-Planets, in press
Wavelenth   Freq   Real             Imaginary
(microns)   (cm-1) Index  std dev.     Index    std. dev.
333.3333    30.00 2.7023 1.8960e-04 2.2800e-02 0.0000e+00
312.5000    32.00 2.7036 1.8958e-04 2.4500e-02 0.0000e+00
294.1176    34.00 2.7030 1.8949e-04 2.6200e-02 0.0000e+00
277.7778    36.00 2.7048 1.8958e-04 2.7900e-02 0.0000e+00
263.1579    38.00 2.7077 1.9276e-04 2.9700e-02 0.0000e+00
250.0000    40.00 2.7112 1.8953e-04 3.1500e-02 0.0000e+00
238.0952    42.00 2.7152 1.8783e-04 3.3300e-02 0.0000e+00
227.2727    44.00 2.7197 1.8958e-04 3.5200e-02 0.0000e+00
217.3913    46.00 2.7246 1.9193e-04 3.7100e-02 0.0000e+00
208.3333    48.00 2.7299 1.8958e-04 3.9100e-02 0.0000e+00
200.0000    50.00 2.7357 1.8958e-04 4.1200e-02 0.0000e+00
192.3077    52.00 2.7418 1.8949e-04 4.3300e-02 0.0000e+00
185.1852    54.00 2.7483 1.8958e-04 4.5500e-02 0.0000e+00
178.5714    56.00 2.7553 1.8949e-04 4.7700e-02 0.0000e+00
172.4138    58.00 2.7627 1.8958e-04 5.0100e-02 0.0000e+00
166.6667    60.00 2.7707 1.9193e-04 5.2500e-02 0.0000e+00
161.2903    62.00 2.7791 1.8958e-04 5.5100e-02 0.0000e+00
156.2500    64.00 2.7881 1.8958e-04 5.7700e-02 0.0000e+00
151.5152    66.00 2.7976 1.8958e-04 6.0500e-02 0.0000e+00
147.0588    68.00 2.8078 1.9193e-04 6.3400e-02 0.0000e+00
142.8571    70.00 2.8187 1.9281e-04 6.6500e-02 0.0000e+00
138.8889    72.00 2.8303 1.8958e-04 6.9800e-02 0.0000e+00
135.1351    74.00 2.8428 1.8958e-04 7.3200e-02 0.0000e+00
131.5789    76.00 2.8561 1.9193e-04 7.6900e-02 0.0000e+00
128.2051    78.00 2.8704 1.8953e-04 8.0800e-02 0.0000e+00
125.0000    80.00 2.8859 1.9446e-04 8.5100e-02 0.0000e+00
121.9512    82.00 2.9025 1.8953e-04 8.9700e-02 0.0000e+00
119.0476    84.00 2.9206 1.8958e-04 9.4800e-02 0.0000e+00
116.2791    86.00 2.9403 1.8953e-04 1.0030e-01 0.0000e+00
113.6364    88.00 2.9618 1.9281e-04 1.0650e-01 0.0000e+00
111.1111    90.00 2.9854 1.8949e-04 1.1360e-01 0.0000e+00
108.6956    92.00 3.0115 1.8958e-04 1.2160e-01 0.0000e+00
106.3830    94.00 3.0405 1.8958e-04 1.3090e-01 0.0000e+00
104.1667    96.00 3.0730 1.8949e-04 1.4180e-01 0.0000e+00
102.0408    98.00 3.1098 1.8958e-04 1.5510e-01 0.0000e+00
100.0000   100.00 3.1518 1.9053e-04 1.7150e-01 0.0000e+00
 98.0392   102.00 3.2001 1.9276e-04 1.9250e-01 0.0000e+00
 96.1538   104.00 3.2564 1.9053e-04 2.2020e-01 0.0000e+00
 94.3396   106.00 3.3226 1.9452e-04 2.5860e-01 0.0000e+00
 92.5926   108.00 3.4005 1.9043e-04 3.1450e-01 0.0000e+00
 90.9091   110.00 3.4902 1.9053e-04 4.0070e-01 0.0000e+00
 89.2857   112.00 3.5847 1.9053e-04 5.4270e-01 0.0000e+00
 87.7193   114.00 3.6508 1.9043e-04 7.8670e-01 0.0000e+00
 86.2069   116.00 3.5989 1.9053e-04 1.1732e+00 0.0000e+00
 84.7458   118.00 3.3458 1.9276e-04 1.5542e+00 0.0000e+00
 83.3333   120.00 2.9842 1.8949e-04 1.6314e+00 0.0000e+00
 81.9672   122.00 2.6885 1.8953e-04 1.4813e+00 0.0000e+00
 80.6452   124.00 2.5093 1.8953e-04 1.2826e+00 0.0000e+00
 79.3651   126.00 2.4160 1.8958e-04 1.0975e+00 0.0000e+00
 78.1250   128.00 2.3783 1.9183e-04 9.3640e-01 0.0000e+00
 76.9231   130.00 2.3788 1.9281e-04 7.9910e-01 0.0000e+00
 75.7576   132.00 2.4068 1.8949e-04 6.8620e-01 0.0000e+00
 74.6269   134.00 2.4539 1.8958e-04 5.9940e-01 0.0000e+00
 73.5294   136.00 2.5118 1.9452e-04 5.3900e-01 0.0000e+00
 72.4638   138.00 2.5737 1.9281e-04 5.0140e-01 0.0000e+00
 71.4286   140.00 2.6351 1.8958e-04 4.8150e-01 0.0000e+00
 70.4225   142.00 2.6944 1.8949e-04 4.7500e-01 0.0000e+00
 69.4444   144.00 2.7508 1.8958e-04 4.7910e-01 0.0000e+00
 68.4931   146.00 2.8046 1.8958e-04 4.9190e-01 0.0000e+00
 67.5676   148.00 2.8556 1.9187e-04 5.1290e-01 0.0000e+00
 66.6667   150.00 2.9040 1.9442e-04 5.4160e-01 0.0000e+00
 65.7895   152.00 2.9491 1.9452e-04 5.7830e-01 0.0000e+00
 64.9351   154.00 2.9903 1.9281e-04 6.2330e-01 0.0000e+00
 64.1026   156.00 3.0260 1.8960e-04 6.7660e-01 0.0000e+00
 63.2911   158.00 3.0547 1.8958e-04 7.3790e-01 0.0000e+00
 62.5000   160.00 3.0744 1.8958e-04 8.0590e-01 0.0000e+00
 61.7284   162.00 3.0837 1.8958e-04 8.7830e-01 0.0000e+00
 60.9756   164.00 3.0819 1.8953e-04 9.5200e-01 0.0000e+00
 60.2410   166.00 3.0695 1.9446e-04 1.0241e+00 0.0000e+00
 59.5238   168.00 3.0471 1.9281e-04 1.0929e+00 0.0000e+00
 58.8235   170.00 3.0150 1.9452e-04 1.1570e+00 0.0000e+00
 58.1395   172.00 2.9732 1.9194e-04 1.2139e+00 0.0000e+00
 57.4713   174.00 2.9230 1.9281e-04 1.2574e+00 0.0000e+00
 56.8182   176.00 2.8705 1.8949e-04 1.2799e+00 0.0000e+00
 56.1798   178.00 2.8258 1.8958e-04 1.2783e+00 0.0000e+00
 55.5556   180.00 2.8002 1.9284e-04 1.2587e+00 0.0000e+00
 54.9450   182.00 2.8019 1.8953e-04 1.2344e+00 0.0000e+00
 54.3478   184.00 2.8336 1.9193e-04 1.2237e+00 0.0000e+00
 53.7634   186.00 2.8903 1.9193e-04 1.2511e+00 0.0000e+00
 53.1915   188.00 2.9475 1.8953e-04 1.3551e+00 0.0000e+00
 52.6316   190.00 2.9380 1.8958e-04 1.5705e+00 0.0000e+00
 52.0833   192.00 2.8067 1.9272e-04 1.7800e+00 0.0000e+00
 51.5464   194.00 2.6292 1.8953e-04 1.7883e+00 0.0000e+00
 51.0204   196.00 2.5150 1.9281e-04 1.6948e+00 0.0000e+00
 50.5051   198.00 2.4759 1.8958e-04 1.6115e+00 0.0000e+00
 50.0000   200.00 2.4814 1.8953e-04 1.5703e+00 0.0000e+00
 49.5050   202.00 2.5036 1.8958e-04 1.5783e+00 0.0000e+00
 49.0196   204.00 2.5191 1.9193e-04 1.6329e+00 0.0000e+00
 48.5437   206.00 2.5092 1.9193e-04 1.7209e+00 0.0000e+00
 48.0769   208.00 2.4650 1.9452e-04 1.8185e+00 0.0000e+00
 47.6190   210.00 2.3901 1.9272e-04 1.9023e+00 0.0000e+00
 47.1698   212.00 2.2962 1.8696e-04 1.9615e+00 0.0000e+00
 46.7290   214.00 2.1939 1.8701e-04 1.9978e+00 0.0000e+00
 46.2963   216.00 2.0890 1.8942e-04 2.0167e+00 0.0000e+00
 45.8716   218.00 1.9836 1.8945e-04 2.0209e+00 0.0000e+00
 45.4546   220.00 1.8792 1.8702e-04 2.0109e+00 0.0000e+00
 45.0451   222.00 1.7779 1.8702e-04 1.9867e+00 0.0000e+00
 44.6429   224.00 1.6821 1.8697e-04 1.9494e+00 0.0000e+00
 44.2478   226.00 1.5938 1.8699e-04 1.9010e+00 0.0000e+00
 43.8596   228.00 1.5142 1.8699e-04 1.8439e+00 0.0000e+00
 43.4783   230.00 1.4441 1.9024e-04 1.7804e+00 0.0000e+00
 43.1035   232.00 1.3833 1.9026e-04 1.7126e+00 0.0000e+00
 42.7350   234.00 1.3317 1.8948e-04 1.6420e+00 0.0000e+00
 42.3729   236.00 1.2889 1.8948e-04 1.5699e+00 0.0000e+00
 42.0168   238.00 1.2546 1.8702e-04 1.4973e+00 0.0000e+00
 41.6667   240.00 1.2283 1.8945e-04 1.4252e+00 0.0000e+00
 41.3223   242.00 1.2096 1.8699e-04 1.3544e+00 0.0000e+00
 40.9836   244.00 1.1980 1.9026e-04 1.2856e+00 0.0000e+00
 40.6504   246.00 1.1929 1.9026e-04 1.2199e+00 0.0000e+00
 40.3226   248.00 1.1936 1.8945e-04 1.1577e+00 0.0000e+00
 40.0000   250.00 1.1993 1.8702e-04 1.0996e+00 0.0000e+00
 39.6825   252.00 1.2093 1.9190e-04 1.0460e+00 0.0000e+00
 39.3701   254.00 1.2227 1.8945e-04 9.9670e-01 0.0000e+00
 39.0625   256.00 1.2390 1.8945e-04 9.5190e-01 0.0000e+00
 38.7597   258.00 1.2576 1.8945e-04 9.1130e-01 0.0000e+00
 38.4615   260.00 1.2781 1.8943e-04 8.7490e-01 0.0000e+00
 38.1679   262.00 1.3001 1.9026e-04 8.4260e-01 0.0000e+00
 37.8788   264.00 1.3233 1.8945e-04 8.1420e-01 0.0000e+00
 37.5940   266.00 1.3474 1.8699e-04 7.8980e-01 0.0000e+00
 37.3134   268.00 1.3719 1.9190e-04 7.6940e-01 0.0000e+00
 37.0370   270.00 1.3967 1.9024e-04 7.5280e-01 0.0000e+00
 36.7647   272.00 1.4215 1.8948e-04 7.3990e-01 0.0000e+00
 36.4963   274.00 1.4460 1.8702e-04 7.3080e-01 0.0000e+00
 36.2319   276.00 1.4699 1.9193e-04 7.2550e-01 0.0000e+00
 35.9712   278.00 1.4928 1.8945e-04 7.2390e-01 0.0000e+00
 35.7143   280.00 1.5145 1.8699e-04 7.2620e-01 0.0000e+00
 35.4610   282.00 1.5344 1.8945e-04 7.3220e-01 0.0000e+00
 35.2113   284.00 1.5522 1.8943e-04 7.4200e-01 0.0000e+00
 34.9650   286.00 1.5671 1.8702e-04 7.5560e-01 0.0000e+00
 34.7222   288.00 1.5786 1.8945e-04 7.7270e-01 0.0000e+00
 34.4828   290.00 1.5857 1.8945e-04 7.9310e-01 0.0000e+00
 34.2466   292.00 1.5877 1.8945e-04 8.1610e-01 0.0000e+00
 34.0136   294.00 1.5837 1.8945e-04 8.4080e-01 0.0000e+00
 33.7838   296.00 1.5731 1.8943e-04 8.6580e-01 0.0000e+00
 33.5570   298.00 1.5554 1.9024e-04 8.8910e-01 0.0000e+00
 33.3333   300.00 1.5311 1.9026e-04 9.0850e-01 0.0000e+00
 33.1126   302.00 1.5012 1.9188e-04 9.2150e-01 0.0000e+00
 32.8947   304.00 1.4676 1.8699e-04 9.2650e-01 0.0000e+00
 32.6797   306.00 1.4329 1.9190e-04 9.2260e-01 0.0000e+00
 32.4675   308.00 1.3992 1.9188e-04 9.1040e-01 0.0000e+00
 32.2581   310.00 1.3685 1.8945e-04 8.9110e-01 0.0000e+00
 32.0513   312.00 1.3422 1.9026e-04 8.6640e-01 0.0000e+00
 31.8471   314.00 1.3208 1.9026e-04 8.3820e-01 0.0000e+00
 31.6456   316.00 1.3044 1.8948e-04 8.0800e-01 0.0000e+00
 31.4465   318.00 1.2929 1.9026e-04 7.7720e-01 0.0000e+00
 31.2500   320.00 1.2859 1.8943e-04 7.4680e-01 0.0000e+00
 31.0559   322.00 1.2827 1.8945e-04 7.1760e-01 0.0000e+00
 30.8642   324.00 1.2828 1.9026e-04 6.9010e-01 0.0000e+00
 30.6749   326.00 1.2855 1.9030e-04 6.6480e-01 0.0000e+00
 30.4878   328.00 1.2902 1.8945e-04 6.4190e-01 0.0000e+00
 30.3030   330.00 1.2963 1.8945e-04 6.2120e-01 0.0000e+00
 30.1205   332.00 1.3034 1.9190e-04 6.0270e-01 0.0000e+00
 29.9401   334.00 1.3110 1.8943e-04 5.8630e-01 0.0000e+00
 29.7619   336.00 1.3188 1.9434e-04 5.7160e-01 0.0000e+00
 29.5858   338.00 1.3266 1.9026e-04 5.5840e-01 0.0000e+00
 29.4118   340.00 1.3342 1.9432e-04 5.4660e-01 0.0000e+00
 29.2398   342.00 1.3417 1.9434e-04 5.3570e-01 0.0000e+00
 29.0698   344.00 1.3489 1.9188e-04 5.2580e-01 0.0000e+00
 28.9017   346.00 1.3558 1.9188e-04 5.1660e-01 0.0000e+00
 28.7356   348.00 1.3625 1.8948e-04 5.0810e-01 0.0000e+00
 28.5714   350.00 1.3689 1.8945e-04 5.0010e-01 0.0000e+00
 28.4091   352.00 1.3751 1.9435e-04 4.9240e-01 0.0000e+00
 28.2486   354.00 1.3811 1.9188e-04 4.8520e-01 0.0000e+00
 28.0899   356.00 1.3869 1.9026e-04 4.7830e-01 0.0000e+00
 27.9330   358.00 1.3926 1.9030e-04 4.7170e-01 0.0000e+00
 27.7778   360.00 1.3982 1.9438e-04 4.6520e-01 0.0000e+00
 27.6243   362.00 1.4038 1.9432e-04 4.5910e-01 0.0000e+00
 27.4725   364.00 1.4094 1.9193e-04 4.5320e-01 0.0000e+00
 27.3224   366.00 1.4149 1.9432e-04 4.4760e-01 0.0000e+00
 27.1739   368.00 1.4204 1.9434e-04 4.4220e-01 0.0000e+00
 27.0270   370.00 1.4259 1.8945e-04 4.3700e-01 0.0000e+00
 26.8817   372.00 1.4315 1.9188e-04 4.3210e-01 0.0000e+00
 26.7380   374.00 1.4371 1.9190e-04 4.2750e-01 0.0000e+00
 26.5957   376.00 1.4427 1.9435e-04 4.2320e-01 0.0000e+00
 26.4550   378.00 1.4483 1.9193e-04 4.1920e-01 0.0000e+00
 26.3158   380.00 1.4539 1.9030e-04 4.1550e-01 0.0000e+00
 26.1780   382.00 1.4595 1.9190e-04 4.1210e-01 0.0000e+00
 26.0417   384.00 1.4651 1.8945e-04 4.0910e-01 0.0000e+00
 25.9067   386.00 1.4707 1.9188e-04 4.0640e-01 0.0000e+00
 25.7732   388.00 1.4763 1.9432e-04 4.0410e-01 0.0000e+00
 25.6410   390.00 1.4817 1.9024e-04 4.0220e-01 0.0000e+00
 25.5102   392.00 1.4870 1.9434e-04 4.0060e-01 0.0000e+00
 25.3807   394.00 1.4922 1.9517e-04 3.9940e-01 0.0000e+00
 25.2525   396.00 1.4972 1.9188e-04 3.9840e-01 0.0000e+00
 25.1256   398.00 1.5021 1.9434e-04 3.9790e-01 0.0000e+00
 25.0000   400.00 1.5068 1.9190e-04 3.9760e-01 0.0000e+00
 24.8756   402.00 1.5112 1.9438e-04 3.9760e-01 0.0000e+00
 24.7525   404.00 1.5154 1.9438e-04 3.9790e-01 0.0000e+00
 24.6305   406.00 1.5194 1.9190e-04 3.9840e-01 0.0000e+00
 24.5098   408.00 1.5232 1.9190e-04 3.9910e-01 0.0000e+00
 24.3902   410.00 1.5267 1.9517e-04 4.0010e-01 0.0000e+00
 24.2718   412.00 1.5299 1.9190e-04 4.0120e-01 0.0000e+00
 24.1546   414.00 1.5329 1.9191e-04 4.0260e-01 0.0000e+00
 24.0385   416.00 1.5356 1.9517e-04 4.0400e-01 0.0000e+00
 23.9234   418.00 1.5381 1.9190e-04 4.0570e-01 0.0000e+00
 23.8095   420.00 1.5403 1.9517e-04 4.0750e-01 0.0000e+00
 23.6967   422.00 1.5422 1.9435e-04 4.0940e-01 0.0000e+00
 23.5849   424.00 1.5438 1.9679e-04 4.1150e-01 0.0000e+00
 23.4742   426.00 1.5452 1.9188e-04 4.1370e-01 0.0000e+00
 23.3645   428.00 1.5461 1.9188e-04 4.1610e-01 0.0000e+00
 23.2558   430.00 1.5467 1.9517e-04 4.1850e-01 0.0000e+00
 23.1481   432.00 1.5469 1.9188e-04 4.2100e-01 0.0000e+00
 23.0415   434.00 1.5467 1.9434e-04 4.2350e-01 0.0000e+00
 22.9358   436.00 1.5461 1.9190e-04 4.2590e-01 0.0000e+00
 22.8311   438.00 1.5451 1.9432e-04 4.2820e-01 0.0000e+00
 22.7273   440.00 1.5437 1.9188e-04 4.3050e-01 0.0000e+00
 22.6244   442.00 1.5418 1.9679e-04 4.3250e-01 0.0000e+00
 22.5225   444.00 1.5396 1.9434e-04 4.3430e-01 0.0000e+00
 22.4215   446.00 1.5371 1.9681e-04 4.3570e-01 0.0000e+00
 22.3214   448.00 1.5342 1.9432e-04 4.3680e-01 0.0000e+00
 22.2222   450.00 1.5311 1.9435e-04 4.3750e-01 0.0000e+00
 22.1239   452.00 1.5277 1.9434e-04 4.3770e-01 0.0000e+00
 22.0264   454.00 1.5243 1.9193e-04 4.3750e-01 0.0000e+00
 21.9298   456.00 1.5208 1.9188e-04 4.3680e-01 0.0000e+00
 21.8341   458.00 1.5172 1.9681e-04 4.3560e-01 0.0000e+00
 21.7391   460.00 1.5137 1.9517e-04 4.3400e-01 0.0000e+00
 21.6450   462.00 1.5103 1.9679e-04 4.3190e-01 0.0000e+00
 21.5517   464.00 1.5071 1.9685e-04 4.2940e-01 0.0000e+00
 21.4592   466.00 1.5041 1.9679e-04 4.2650e-01 0.0000e+00
 21.3675   468.00 1.5013 1.9679e-04 4.2330e-01 0.0000e+00
 21.2766   470.00 1.4988 1.9685e-04 4.1970e-01 0.0000e+00
 21.1864   472.00 1.4966 1.9681e-04 4.1580e-01 0.0000e+00
 21.0970   474.00 1.4948 1.9681e-04 4.1180e-01 0.0000e+00
 21.0084   476.00 1.4933 1.9681e-04 4.0750e-01 0.0000e+00
 20.9205   478.00 1.4922 1.9679e-04 4.0310e-01 0.0000e+00
 20.8333   480.00 1.4914 1.9679e-04 3.9860e-01 0.0000e+00
 20.7469   482.00 1.4911 1.9679e-04 3.9410e-01 0.0000e+00
 20.6612   484.00 1.4912 1.9681e-04 3.8950e-01 0.0000e+00
 20.5761   486.00 1.4916 1.9681e-04 3.8510e-01 0.0000e+00
 20.4918   488.00 1.4924 2.0173e-04 3.8070e-01 0.0000e+00
 20.4082   490.00 1.4935 1.9681e-04 3.7640e-01 0.0000e+00
 20.3252   492.00 1.4950 2.0171e-04 3.7230e-01 0.0000e+00
 20.2429   494.00 1.4968 1.9681e-04 3.6830e-01 0.0000e+00
 20.1613   496.00 1.4989 1.9681e-04 3.6460e-01 0.0000e+00
 20.0803   498.00 1.5013 1.9681e-04 3.6110e-01 0.0000e+00
 20.0000   500.00 1.5039 2.0173e-04 3.5800e-01 0.0000e+00
 19.9203   502.00 1.5067 1.9681e-04 3.5510e-01 0.0000e+00
 19.8413   504.00 1.5097 1.9681e-04 3.5250e-01 0.0000e+00
 19.7628   506.00 1.5128 1.9942e-04 3.5030e-01 0.0000e+00
 19.6850   508.00 1.5160 2.0171e-04 3.4840e-01 0.0000e+00
 19.6078   510.00 1.5194 2.0171e-04 3.4680e-01 0.0000e+00
 19.5312   512.00 1.5227 2.0173e-04 3.4560e-01 0.0000e+00
 19.4552   514.00 1.5260 2.0171e-04 3.4480e-01 0.0000e+00
 19.3798   516.00 1.5293 2.0173e-04 3.4420e-01 0.0000e+00
 19.3050   518.00 1.5325 2.0173e-04 3.4400e-01 0.0000e+00
 19.2308   520.00 1.5356 2.0173e-04 3.4400e-01 0.0000e+00
 19.1571   522.00 1.5385 2.0171e-04 3.4420e-01 0.0000e+00
 19.0840   524.00 1.5413 1.9940e-04 3.4460e-01 0.0000e+00
 19.0114   526.00 1.5439 2.0173e-04 3.4520e-01 0.0000e+00
 18.9394   528.00 1.5463 1.9942e-04 3.4580e-01 0.0000e+00
 18.8679   530.00 1.5487 2.0436e-04 3.4650e-01 0.0000e+00
 18.7970   532.00 1.5508 2.0434e-04 3.4720e-01 0.0000e+00
 18.7266   534.00 1.5528 2.0433e-04 3.4770e-01 0.0000e+00
 18.6567   536.00 1.5548 1.9940e-04 3.4820e-01 0.0000e+00
 18.5874   538.00 1.5569 2.0434e-04 3.4840e-01 0.0000e+00
 18.5185   540.00 1.5590 2.0434e-04 3.4850e-01 0.0000e+00
 18.4502   542.00 1.5614 2.0433e-04 3.4840e-01 0.0000e+00
 18.3824   544.00 1.5640 2.0434e-04 3.4810e-01 0.0000e+00
 18.3150   546.00 1.5670 2.0434e-04 3.4770e-01 0.0000e+00
 18.2482   548.00 1.5704 2.0436e-04 3.4720e-01 0.0000e+00
 18.1818   550.00 1.5744 2.0436e-04 3.4660e-01 0.0000e+00
 18.1159   552.00 1.5791 2.0215e-04 3.4620e-01 0.0000e+00
 18.0505   554.00 1.5846 2.0710e-04 3.4580e-01 0.0000e+00
 17.9856   556.00 1.5910 2.0712e-04 3.4590e-01 0.0000e+00
 17.9212   558.00 1.5982 2.0219e-04 3.4650e-01 0.0000e+00
 17.8571   560.00 1.6064 2.0710e-04 3.4790e-01 0.0000e+00
 17.7936   562.00 1.6156 2.0710e-04 3.5020e-01 0.0000e+00
 17.7305   564.00 1.6259 2.0712e-04 3.5380e-01 0.0000e+00
 17.6678   566.00 1.6371 2.0709e-04 3.5900e-01 0.0000e+00
 17.6056   568.00 1.6492 2.0706e-04 3.6610e-01 0.0000e+00
 17.5439   570.00 1.6622 2.0710e-04 3.7560e-01 0.0000e+00
 17.4825   572.00 1.6757 2.0998e-04 3.8800e-01 0.0000e+00
 17.4216   574.00 1.6895 2.0998e-04 4.0380e-01 0.0000e+00
 17.3611   576.00 1.7031 2.1495e-04 4.2370e-01 0.0000e+00
 17.3010   578.00 1.7157 2.1495e-04 4.4850e-01 0.0000e+00
 17.2414   580.00 1.7264 2.0998e-04 4.7900e-01 0.0000e+00
 17.1821   582.00 1.7334 2.1000e-04 5.1570e-01 0.0000e+00
 17.1233   584.00 1.7350 2.1495e-04 5.5900e-01 0.0000e+00
 17.0648   586.00 1.7283 2.1794e-04 6.0860e-01 0.0000e+00
 17.0068   588.00 1.7107 2.1298e-04 6.6230e-01 0.0000e+00
 16.9492   590.00 1.6801 2.1796e-04 7.1650e-01 0.0000e+00
 16.8919   592.00 1.6358 2.1609e-04 7.6540e-01 0.0000e+00
 16.8350   594.00 1.5797 2.1608e-04 8.0300e-01 0.0000e+00
 16.7785   596.00 1.5160 2.1794e-04 8.2490e-01 0.0000e+00
 16.7224   598.00 1.4501 2.1609e-04 8.2970e-01 0.0000e+00
 16.6667   600.00 1.3865 2.1931e-04 8.1930e-01 0.0000e+00
 16.6113   602.00 1.3286 2.2104e-04 7.9670e-01 0.0000e+00
 16.5563   604.00 1.2779 2.2426e-04 7.6530e-01 0.0000e+00
 16.5016   606.00 1.2353 2.2430e-04 7.2780e-01 0.0000e+00
 16.4474   608.00 1.2007 2.2260e-04 6.8680e-01 0.0000e+00
 16.3934   610.00 1.1736 2.2262e-04 6.4380e-01 0.0000e+00
 16.3399   612.00 1.1537 2.2761e-04 6.0030e-01 0.0000e+00
 16.2866   614.00 1.1402 2.2966e-04 5.5740e-01 0.0000e+00
 16.2338   616.00 1.1324 2.2604e-04 5.1600e-01 0.0000e+00
 16.1812   618.00 1.1297 2.3100e-04 4.7650e-01 0.0000e+00
 16.1290   620.00 1.1314 2.2956e-04 4.3970e-01 0.0000e+00
 16.0772   622.00 1.1366 2.3812e-04 4.0570e-01 0.0000e+00
 16.0256   624.00 1.1448 2.3812e-04 3.7470e-01 0.0000e+00
 15.9744   626.00 1.1553 2.4181e-04 3.4660e-01 0.0000e+00
 15.9236   628.00 1.1676 2.4181e-04 3.2150e-01 0.0000e+00
 15.8730   630.00 1.1813 2.4557e-04 2.9890e-01 0.0000e+00
 15.8228   632.00 1.1963 2.4557e-04 2.7890e-01 0.0000e+00
 15.7729   634.00 1.2121 2.4936e-04 2.6120e-01 0.0000e+00
 15.7233   636.00 1.2288 2.5173e-04 2.4550e-01 0.0000e+00
 15.6740   638.00 1.2463 2.5333e-04 2.3190e-01 0.0000e+00
 15.6250   640.00 1.2646 2.5333e-04 2.2010e-01 0.0000e+00
 15.5763   642.00 1.2837 2.4936e-04 2.1010e-01 0.0000e+00
 15.5280   644.00 1.3038 2.4557e-04 2.0200e-01 0.0000e+00
 15.4799   646.00 1.3251 2.4177e-04 1.9570e-01 0.0000e+00
 15.4321   648.00 1.3479 2.2106e-04 1.9160e-01 0.0000e+00
 15.3846   650.00 1.3727 1.9741e-04 1.9003e-01 2.8872e-05
 15.3374   652.00 1.3998 1.8494e-04 1.9170e-01 1.2124e-04
 15.2905   654.00 1.4299 2.0414e-04 1.9795e-01 2.8868e-04
 15.2439   656.00 1.4636 2.2761e-04 2.1086e-01 6.5241e-04
 15.1976   658.00 1.5008 1.8566e-04 2.3479e-01 1.3683e-03
 15.1515   660.00 1.5394 7.4232e-04 2.7720e-01 2.7655e-03
 15.1057   662.00 1.5704 3.1750e-03 3.5130e-01 4.7343e-03
 15.0602   664.00 1.5705 7.3607e-03 4.6997e-01 3.4237e-03
 15.0150   666.00 1.5086 7.5482e-03 6.1115e-01 7.7942e-03
 14.9701   668.00 1.3884 8.1229e-04 6.9108e-01 1.3874e-02
 14.9254   670.00 1.2598 4.8244e-03 6.7244e-01 6.6568e-03
 14.8809   672.00 1.1634 5.1217e-03 6.0217e-01 1.0681e-03
 14.8368   674.00 1.1035 3.6478e-03 5.2123e-01 7.2745e-04
 14.7929   676.00 1.0706 2.4779e-03 4.4454e-01 9.7572e-04
 14.7493   678.00 1.0563 1.8165e-03 3.7494e-01 9.6418e-04
 14.7059   680.00 1.0556 1.4070e-03 3.1272e-01 1.0623e-03
 14.6628   682.00 1.0652 1.0074e-03 2.5870e-01 1.2644e-03
 14.6199   684.00 1.0824 5.5016e-04 2.1435e-01 1.3221e-03
 14.5773   686.00 1.1036 2.1701e-04 1.8034e-01 1.0854e-03
 14.5349   688.00 1.1259 2.2602e-04 1.5534e-01 7.3324e-04
 14.4928   690.00 1.1473 2.6963e-04 1.3700e-01 4.6188e-04
 14.4509   692.00 1.1670 2.6628e-04 1.2334e-01 2.7136e-04
 14.4092   694.00 1.1848 2.4181e-04 1.1275e-01 1.6743e-04
 14.3678   696.00 1.2009 2.2805e-04 1.0429e-01 1.0392e-04
 14.3266   698.00 1.2155 2.1153e-04 9.7446e-02 5.2540e-05
 14.2857   700.00 1.2288 1.9971e-04 9.1628e-02 3.2907e-05
 14.2450   702.00 1.2410 1.9367e-04 8.6807e-02 8.0827e-06
 14.2045   704.00 1.2522 1.8999e-04 8.2506e-02 6.3492e-06
 14.1643   706.00 1.2626 1.8907e-04 7.8809e-02 1.0393e-05
 14.1243   708.00 1.2723 1.8536e-04 7.5511e-02 1.2703e-05
 14.0845   710.00 1.2814 1.8893e-04 7.2516e-02 1.7899e-05
 14.0449   712.00 1.2900 1.8894e-04 6.9820e-02 2.3095e-05
 14.0056   714.00 1.2980 1.8889e-04 6.7415e-02 1.7318e-05
 13.9665   716.00 1.3056 1.8948e-04 6.5207e-02 8.6591e-06
 13.9276   718.00 1.3128 1.8889e-04 6.3118e-02 2.0781e-05
 13.8889   720.00 1.3197 1.8893e-04 6.1209e-02 1.0969e-05
 13.8504   722.00 1.3263 1.8893e-04 5.9410e-02 1.2124e-05
 13.8122   724.00 1.3326 1.8893e-04 5.7722e-02 2.5403e-05
 13.7741   726.00 1.3387 1.9306e-04 5.6199e-02 1.1550e-06
 13.7363   728.00 1.3445 1.8893e-04 5.4711e-02 1.3279e-05
 13.6986   730.00 1.3501 1.8911e-04 5.3312e-02 1.3279e-05
 13.6612   732.00 1.3555 1.8889e-04 5.2000e-02 5.7856e-07
 13.6240   734.00 1.3608 1.8907e-04 5.0723e-02 2.6558e-05
 13.5870   736.00 1.3659 1.9332e-04 4.9599e-02 5.7856e-07
 13.5501   738.00 1.3707 1.9306e-04 4.8500e-02 0.0000e+00
 13.5135   740.00 1.3755 1.8911e-04 4.7411e-02 1.2124e-05
 13.4771   742.00 1.3801 1.8911e-04 4.6400e-02 5.7641e-07
 13.4409   744.00 1.3846 1.8911e-04 4.5409e-02 9.8141e-06
 13.4048   746.00 1.3890 1.8911e-04 4.4500e-02 0.0000e+00
 13.3690   748.00 1.3933 1.8911e-04 4.3600e-02 0.0000e+00
 13.3333   750.00 1.3975 1.8911e-04 4.2706e-02 6.9277e-06
 13.2979   752.00 1.4016 1.9328e-04 4.1904e-02 4.6178e-06
 13.2626   754.00 1.4056 1.9399e-04 4.1197e-02 3.4649e-06
 13.2275   756.00 1.4094 1.9364e-04 4.0400e-02 0.0000e+00
 13.1926   758.00 1.4133 1.9328e-04 3.9600e-02 5.7641e-07
 13.1579   760.00 1.4171 1.8970e-04 3.8902e-02 2.3100e-06
 13.1234   762.00 1.4207 1.9328e-04 3.8296e-02 4.6199e-06
 13.0890   764.00 1.4243 1.8911e-04 3.7605e-02 5.7749e-06
 13.0548   766.00 1.4279 1.8946e-04 3.7000e-02 0.0000e+00
 13.0208   768.00 1.4313 1.9332e-04 3.6400e-02 0.0000e+00
 12.9870   770.00 1.4347 1.9332e-04 3.5800e-02 0.0000e+00
 12.9534   772.00 1.4381 1.8946e-04 3.5209e-02 1.0393e-05
 12.9199   774.00 1.4414 1.9399e-04 3.4690e-02 1.2124e-05
 12.8866   776.00 1.4447 1.9332e-04 3.4111e-02 1.2124e-05
 12.8535   778.00 1.4479 1.8946e-04 3.3599e-02 5.7641e-07
 12.8205   780.00 1.4511 1.9399e-04 3.3100e-02 0.0000e+00
 12.7877   782.00 1.4542 1.9019e-04 3.2612e-02 1.3855e-05
 12.7551   784.00 1.4573 1.9399e-04 3.2188e-02 1.3858e-05
 12.7226   786.00 1.4603 1.9394e-04 3.1712e-02 1.3855e-05
 12.6904   788.00 1.4633 1.9327e-04 3.1288e-02 1.3858e-05
 12.6582   790.00 1.4663 1.9328e-04 3.0811e-02 1.3279e-05
 12.6263   792.00 1.4692 1.9375e-04 3.0400e-02 5.7749e-07
 12.5945   794.00 1.4722 1.9399e-04 2.9999e-02 5.7749e-07
 12.5628   796.00 1.4751 1.9808e-04 2.9610e-02 1.1547e-05
 12.5313   798.00 1.4779 1.9445e-04 2.9291e-02 1.0393e-05
 12.5000   800.00 1.4807 1.9328e-04 2.8900e-02 0.0000e+00
 12.4688   802.00 1.4835 1.9375e-04 2.8507e-02 8.0827e-06
 12.4378   804.00 1.4862 1.9821e-04 2.8195e-02 6.3513e-06
 12.4069   806.00 1.4890 1.9399e-04 2.7804e-02 5.1963e-06
 12.3762   808.00 1.4917 1.9451e-04 2.7500e-02 0.0000e+00
 12.3457   810.00 1.4944 1.9821e-04 2.7199e-02 1.7325e-06
 12.3153   812.00 1.4971 1.9370e-04 2.6800e-02 5.7749e-07
 12.2850   814.00 1.4998 1.9375e-04 2.6598e-02 2.3089e-06
 12.2549   816.00 1.5024 1.9399e-04 2.6300e-02 0.0000e+00
 12.2249   818.00 1.5050 1.9821e-04 2.6000e-02 0.0000e+00
 12.1951   820.00 1.5076 1.9802e-04 2.5706e-02 7.5063e-06
 12.1655   822.00 1.5102 1.9826e-04 2.5493e-02 8.6602e-06
 12.1359   824.00 1.5128 1.9757e-04 2.5200e-02 0.0000e+00
 12.1065   826.00 1.5154 1.9821e-04 2.4910e-02 1.0969e-05
 12.0773   828.00 1.5179 1.9880e-04 2.4700e-02 0.0000e+00
 12.0482   830.00 1.5205 1.9821e-04 2.4489e-02 1.2702e-05
 12.0192   832.00 1.5230 1.9399e-04 2.4211e-02 1.3279e-05
 11.9904   834.00 1.5255 1.9436e-04 2.4000e-02 0.0000e+00
 11.9617   836.00 1.5280 1.9779e-04 2.3788e-02 1.3857e-05
 11.9332   838.00 1.5305 1.9784e-04 2.3512e-02 1.3857e-05
 11.9048   840.00 1.5330 1.9826e-04 2.3300e-02 0.0000e+00
 11.8765   842.00 1.5356 1.9880e-04 2.3112e-02 1.3857e-05
 11.8483   844.00 1.5380 1.9821e-04 2.2977e-02 2.6558e-05
 11.8203   846.00 1.5405 1.9826e-04 2.2723e-02 2.5981e-05
 11.7924   848.00 1.5430 1.9886e-04 2.2590e-02 1.2125e-05
 11.7647   850.00 1.5455 1.9753e-04 2.2400e-02 0.0000e+00
 11.7371   852.00 1.5479 2.0203e-04 2.2200e-02 0.0000e+00
 11.7096   854.00 1.5504 1.9826e-04 2.2008e-02 9.2377e-06
 11.6822   856.00 1.5529 1.9808e-04 2.1900e-02 0.0000e+00
 11.6550   858.00 1.5554 2.0185e-04 2.1794e-02 6.9288e-06
 11.6279   860.00 1.5578 1.9757e-04 2.1600e-02 0.0000e+00
 11.6009   862.00 1.5603 1.9821e-04 2.1403e-02 3.4639e-06
 11.5741   864.00 1.5628 1.9826e-04 2.1300e-02 0.0000e+00
 11.5473   866.00 1.5653 1.9826e-04 2.1200e-02 0.0000e+00
 11.5207   868.00 1.5677 2.0208e-04 2.1002e-02 2.3100e-06
 11.4943   870.00 1.5703 2.0180e-04 2.0900e-02 0.0000e+00
 11.4679   872.00 1.5728 2.0204e-04 2.0800e-02 0.0000e+00
 11.4417   874.00 1.5753 1.9752e-04 2.0700e-02 0.0000e+00
 11.4155   876.00 1.5777 2.0185e-04 2.0600e-02 0.0000e+00
 11.3895   878.00 1.5803 1.9752e-04 2.0500e-02 0.0000e+00
 11.3636   880.00 1.5828 1.9827e-04 2.0400e-02 0.0000e+00
 11.3379   882.00 1.5853 2.0208e-04 2.0300e-02 0.0000e+00
 11.3122   884.00 1.5878 1.9757e-04 2.0200e-02 0.0000e+00
 11.2867   886.00 1.5904 2.0208e-04 2.0100e-02 0.0000e+00
 11.2613   888.00 1.5930 2.0181e-04 2.0011e-02 1.3279e-05
 11.2360   890.00 1.5955 2.0180e-04 1.9988e-02 1.3857e-05
 11.2108   892.00 1.5981 2.0175e-04 1.9900e-02 0.0000e+00
 11.1857   894.00 1.6007 2.0203e-04 1.9812e-02 1.3857e-05
 11.1607   896.00 1.6033 2.0203e-04 1.9788e-02 1.3857e-05
 11.1359   898.00 1.6059 2.0204e-04 1.9712e-02 1.3279e-05
 11.1111   900.00 1.6086 2.0203e-04 1.9689e-02 1.2702e-05
 11.0865   902.00 1.6112 2.0565e-04 1.9600e-02 0.0000e+00
 11.0619   904.00 1.6139 2.0140e-04 1.9510e-02 1.1547e-05
 11.0375   906.00 1.6167 2.0180e-04 1.9500e-02 0.0000e+00
 11.0132   908.00 1.6194 2.0203e-04 1.9500e-02 0.0000e+00
 10.9890   910.00 1.6222 2.0568e-04 1.9500e-02 0.0000e+00
 10.9649   912.00 1.6249 2.0144e-04 1.9494e-02 6.9288e-06
 10.9409   914.00 1.6277 2.0536e-04 1.9405e-02 5.1963e-06
 10.9170   916.00 1.6305 2.0590e-04 1.9400e-02 0.0000e+00
 10.8933   918.00 1.6334 2.0140e-04 1.9402e-02 1.7314e-06
 10.8696   920.00 1.6363 2.0595e-04 1.9500e-02 0.0000e+00
 10.8460   922.00 1.6391 2.0590e-04 1.9500e-02 0.0000e+00
 10.8225   924.00 1.6421 2.0590e-04 1.9500e-02 0.0000e+00
 10.7991   926.00 1.6450 2.0590e-04 1.9500e-02 0.0000e+00
 10.7759   928.00 1.6480 2.0566e-04 1.9500e-02 0.0000e+00
 10.7527   930.00 1.6510 2.0595e-04 1.9508e-02 8.6602e-06
 10.7296   932.00 1.6541 2.0536e-04 1.9591e-02 9.8152e-06
 10.7066   934.00 1.6572 2.0590e-04 1.9609e-02 1.0969e-05
 10.6838   936.00 1.6603 2.0570e-04 1.9690e-02 1.1547e-05
 10.6610   938.00 1.6635 2.0570e-04 1.9711e-02 1.2702e-05
 10.6383   940.00 1.6667 2.0590e-04 1.9800e-02 0.0000e+00
 10.6157   942.00 1.6700 2.0515e-04 1.9888e-02 1.3279e-05
 10.5932   944.00 1.6733 2.0558e-04 1.9912e-02 1.3857e-05
 10.5708   946.00 1.6766 2.0981e-04 2.0000e-02 0.0000e+00
 10.5485   948.00 1.6800 2.0966e-04 2.0100e-02 0.0000e+00
 10.5263   950.00 1.6835 2.0970e-04 2.0200e-02 0.0000e+00
 10.5042   952.00 1.6870 2.0986e-04 2.0312e-02 1.3279e-05
 10.4822   954.00 1.6906 2.0982e-04 2.0489e-02 1.2702e-05
 10.4602   956.00 1.6942 2.0966e-04 2.0600e-02 0.0000e+00
 10.4384   958.00 1.6978 2.0965e-04 2.0710e-02 1.1547e-05
 10.4167   960.00 1.7016 2.0965e-04 2.0891e-02 1.0393e-05
 10.3950   962.00 1.7054 2.0924e-04 2.1008e-02 9.8152e-06
 10.3734   964.00 1.7092 2.0919e-04 2.1200e-02 0.0000e+00
 10.3520   966.00 1.7132 2.0970e-04 2.1400e-02 0.0000e+00
 10.3306   968.00 1.7172 2.0966e-04 2.1600e-02 0.0000e+00
 10.3093   970.00 1.7212 2.0920e-04 2.1800e-02 0.0000e+00
 10.2881   972.00 1.7254 2.0970e-04 2.2000e-02 0.0000e+00
 10.2669   974.00 1.7296 2.0981e-04 2.2200e-02 0.0000e+00
 10.2459   976.00 1.7339 2.0982e-04 2.2498e-02 2.3100e-06
 10.2249   978.00 1.7383 2.0981e-04 2.2703e-02 3.4639e-06
 10.2041   980.00 1.7429 2.0965e-04 2.3000e-02 0.0000e+00
 10.1833   982.00 1.7474 2.1400e-04 2.3300e-02 0.0000e+00
 10.1626   984.00 1.7521 2.0986e-04 2.3600e-02 0.0000e+00
 10.1420   986.00 1.7569 2.1013e-04 2.3900e-02 0.0000e+00
 10.1215   988.00 1.7619 2.1013e-04 2.4209e-02 1.0970e-05
 10.1010   990.00 1.7669 2.0981e-04 2.4600e-02 0.0000e+00
 10.0807   992.00 1.7720 2.1013e-04 2.5000e-02 0.0000e+00
 10.0604   994.00 1.7773 2.1439e-04 2.5401e-02 5.7749e-07
 10.0402   996.00 1.7827 2.1065e-04 2.5801e-02 5.7641e-07
 10.0200   998.00 1.7882 2.1060e-04 2.6212e-02 1.3857e-05
 10.0000  1000.00 1.7939 2.1439e-04 2.6700e-02 0.0000e+00
  9.9800  1002.00 1.7998 2.1494e-04 2.7200e-02 0.0000e+00
  9.9602  1004.00 1.8058 2.1439e-04 2.7712e-02 1.4434e-05
  9.9404  1006.00 1.8119 2.1439e-04 2.8301e-02 5.7749e-07
  9.9206  1008.00 1.8183 2.1124e-04 2.8900e-02 0.0000e+00
  9.9010  1010.00 1.8248 2.1563e-04 2.9500e-02 0.0000e+00
  9.8814  1012.00 1.8315 2.1564e-04 3.0110e-02 1.1548e-05
  9.8619  1014.00 1.8384 2.1499e-04 3.0809e-02 1.0393e-05
  9.8425  1016.00 1.8455 2.1648e-04 3.1591e-02 9.8141e-06
  9.8232  1018.00 1.8529 2.1648e-04 3.2315e-02 1.7320e-05
  9.8039  1020.00 1.8605 2.1569e-04 3.3200e-02 5.7641e-07
  9.7847  1022.00 1.8684 2.1748e-04 3.4100e-02 5.7641e-07
  9.7656  1024.00 1.8765 2.1748e-04 3.5002e-02 2.8864e-06
  9.7466  1026.00 1.8849 2.1854e-04 3.6000e-02 5.7856e-07
  9.7276  1028.00 1.8936 2.2317e-04 3.7000e-02 5.7856e-07
  9.7087  1030.00 1.9027 2.2455e-04 3.8199e-02 1.1528e-06
  9.6899  1032.00 1.9120 2.2605e-04 3.9403e-02 3.4649e-06
  9.6712  1034.00 1.9218 2.2605e-04 4.0706e-02 6.3513e-06
  9.6525  1036.00 1.9319 2.2765e-04 4.2106e-02 6.9277e-06
  9.6339  1038.00 1.9424 2.2464e-04 4.3607e-02 8.6591e-06
  9.6154  1040.00 1.9534 2.2942e-04 4.5209e-02 1.0391e-05
  9.5969  1042.00 1.9648 2.3273e-04 4.6908e-02 9.8141e-06
  9.5785  1044.00 1.9767 2.3057e-04 4.8719e-02 2.1362e-05
  9.5602  1046.00 1.9892 2.3769e-04 5.0710e-02 1.1545e-05
  9.5420  1048.00 2.0023 2.3771e-04 5.2834e-02 3.9261e-05
  9.5238  1050.00 2.0160 2.4009e-04 5.5212e-02 1.3858e-05
  9.5057  1052.00 2.0304 2.4177e-04 5.7737e-02 4.2147e-05
  9.4877  1054.00 2.0455 2.4258e-04 6.0526e-02 3.0023e-05
  9.4697  1056.00 2.0614 2.5064e-04 6.3526e-02 3.0021e-05
  9.4518  1058.00 2.0782 2.5064e-04 6.6761e-02 7.1015e-05
  9.4340  1060.00 2.0959 2.5070e-04 7.0427e-02 3.0602e-05
  9.4162  1062.00 2.1147 2.6156e-04 7.4359e-02 6.7552e-05
  9.3985  1064.00 2.1345 2.6455e-04 7.8745e-02 5.2540e-05
  9.3809  1066.00 2.1556 2.6987e-04 8.3565e-02 7.5059e-05
  9.3633  1068.00 2.1781 2.7449e-04 8.8959e-02 6.7548e-05
  9.3458  1070.00 2.2022 2.7647e-04 9.4970e-02 8.0831e-05
  9.3284  1072.00 2.2279 2.8493e-04 1.0178e-01 8.6604e-05
  9.3110  1074.00 2.2555 2.8739e-04 1.0947e-01 7.5059e-05
  9.2937  1076.00 2.2851 3.0628e-04 1.1816e-01 6.9281e-05
  9.2764  1078.00 2.3172 3.3114e-04 1.2804e-01 5.1955e-05
  9.2593  1080.00 2.3519 3.5745e-04 1.3955e-01 5.7727e-05
  9.2421  1082.00 2.3897 4.3596e-04 1.5299e-01 1.7318e-05
  9.2251  1084.00 2.4309 5.5199e-04 1.6875e-01 6.3509e-05
  9.2081  1086.00 2.4760 6.6466e-04 1.8762e-01 1.3856e-04
  9.1912  1088.00 2.5254 7.8264e-04 2.1025e-01 2.9445e-04
  9.1743  1090.00 2.5798 9.1363e-04 2.3799e-01 4.5611e-04
  9.1575  1092.00 2.6397 1.0550e-03 2.7246e-01 7.6209e-04
  9.1408  1094.00 2.7055 1.1418e-03 3.1618e-01 1.2413e-03
  9.1241  1096.00 2.7771 1.0882e-03 3.7259e-01 1.9514e-03
  9.1075  1098.00 2.8533 7.2052e-04 4.4708e-01 2.9733e-03
  9.0909  1100.00 2.9302 3.8522e-04 5.4685e-01 4.2146e-03
  9.0744  1102.00 2.9992 2.3462e-03 6.8053e-01 5.3405e-03
  9.0580  1104.00 3.0447 5.2703e-03 8.5352e-01 4.6419e-03
  9.0416  1106.00 3.0470 7.0674e-03 1.0563e+00 3.4640e-04
  9.0253  1108.00 2.9968 4.8750e-03 1.2537e+00 7.2746e-03
  9.0090  1110.00 2.9097 4.9607e-04 1.4024e+00 8.8912e-03
  8.9928  1112.00 2.8206 4.5465e-03 1.4927e+00 3.9259e-03
  8.9767  1114.00 2.7564 4.7454e-03 1.5558e+00 2.8867e-03
  8.9606  1116.00 2.7184 6.0401e-04 1.6388e+00 8.8335e-03
  8.9445  1118.00 2.6758 6.9840e-03 1.7843e+00 9.1799e-03
  8.9286  1120.00 2.5740 9.7657e-03 1.9916e+00 5.2539e-03
  8.9127  1122.00 2.3923 1.6900e-03 2.1551e+00 1.6685e-02
  8.8968  1124.00 2.1929 6.2106e-03 2.1815e+00 6.4663e-03
  8.8810  1126.00 2.0452 5.5761e-03 2.1400e+00 2.5980e-03
  8.8652  1128.00 1.9500 1.9106e-03 2.1227e+00 4.0414e-03
  8.8496  1130.00 1.8681 5.0561e-04 2.1594e+00 2.0785e-03
  8.8339  1132.00 1.7633 8.7932e-04 2.2316e+00 1.1549e-04
  8.8183  1134.00 1.6210 3.5128e-04 2.3026e+00 8.0829e-04
  8.8028  1136.00 1.4477 2.5730e-04 2.3396e+00 5.7813e-05
  8.7873  1138.00 1.2635 2.6848e-04 2.3249e+00 8.0829e-04
  8.7719  1140.00 1.0891 3.5128e-04 2.2645e+00 1.0969e-03
  8.7566  1142.00 0.9370 7.4383e-04 2.1734e+00 9.8145e-04
  8.7413  1144.00 0.8107 1.0250e-03 2.0669e+00 5.1963e-04
  8.7260  1146.00 0.7084 1.0279e-03 1.9555e+00 5.7745e-05
  8.7108  1148.00 0.6263 8.5437e-04 1.8449e+00 3.4640e-04
  8.6957  1150.00 0.5606 7.0412e-04 1.7379e+00 3.4640e-04
  8.6806  1152.00 0.5079 6.1073e-04 1.6360e+00 4.6189e-04
  8.6655  1154.00 0.4652 4.8011e-04 1.5393e+00 5.7738e-04
  8.6505  1156.00 0.4307 3.2909e-04 1.4474e+00 5.7738e-04
  8.6356  1158.00 0.4027 2.5645e-04 1.3600e+00 4.6189e-04
  8.6207  1160.00 0.3802 2.3896e-04 1.2765e+00 4.0414e-04
  8.6059  1162.00 0.3623 2.3444e-04 1.1962e+00 2.8865e-04
  8.5911  1164.00 0.3486 2.4617e-04 1.1189e+00 2.3091e-04
  8.5763  1166.00 0.3386 2.4617e-04 1.0440e+00 2.8865e-04
  8.5616  1168.00 0.3322 2.3895e-04 9.7106e-01 3.0600e-04
  8.5470  1170.00 0.3296 2.3613e-04 8.9973e-01 2.7134e-04
  8.5324  1172.00 0.3310 2.3558e-04 8.3026e-01 3.0600e-04
  8.5179  1174.00 0.3364 2.3452e-04 7.6307e-01 3.1756e-04
  8.5034  1176.00 0.3456 2.4959e-04 6.9882e-01 3.6952e-04
  8.4890  1178.00 0.3579 2.6664e-04 6.3811e-01 2.4825e-04
  8.4746  1180.00 0.3726 2.6394e-04 5.8078e-01 2.0207e-04
  8.4602  1182.00 0.3892 2.6394e-04 5.2637e-01 1.9629e-04
  8.4459  1184.00 0.4077 2.7730e-04 4.7385e-01 1.7898e-04
  8.4317  1186.00 0.4284 2.7159e-04 4.2296e-01 7.5054e-05
  8.4175  1188.00 0.4521 2.5902e-04 3.7376e-01 6.9290e-05
  8.4034  1190.00 0.4792 2.3558e-04 3.2695e-01 5.7727e-05
  8.3893  1192.00 0.5096 2.5416e-04 2.8432e-01 2.3091e-05
  8.3752  1194.00 0.5425 2.6626e-04 2.4709e-01 2.1939e-04
  8.3612  1196.00 0.5764 2.4609e-04 2.1565e-01 2.9445e-04
  8.3472  1198.00 0.6102 2.3894e-04 1.8961e-01 3.5795e-04
  8.3333  1200.00 0.6429 2.5903e-04 1.6819e-01 3.4063e-04
  8.3195  1202.00 0.6741 2.7839e-04 1.5063e-01 2.6558e-04
  8.3056  1204.00 0.7035 2.9803e-04 1.3603e-01 2.6558e-04
  8.2919  1206.00 0.7311 3.0347e-04 1.2378e-01 2.0785e-04
  8.2781  1208.00 0.7569 3.0491e-04 1.1335e-01 1.7320e-04
  8.2645  1210.00 0.7810 3.1205e-04 1.0434e-01 1.6166e-04
  8.2508  1212.00 0.8036 3.1569e-04 9.6618e-02 1.3568e-04
  8.2372  1214.00 0.8248 3.1205e-04 8.9887e-02 9.9883e-05
  8.2237  1216.00 0.8447 3.0988e-04 8.3895e-02 1.0912e-04
  8.2102  1218.00 0.8634 3.0490e-04 7.8645e-02 5.2540e-05
  8.1967  1220.00 0.8810 2.9806e-04 7.3872e-02 8.3141e-05
  8.1833  1222.00 0.8977 2.9472e-04 6.9637e-02 4.2147e-05
  8.1699  1224.00 0.9134 2.9646e-04 6.5759e-02 6.8124e-05
  8.1566  1226.00 0.9283 2.9148e-04 6.2323e-02 2.6558e-05
  8.1433  1228.00 0.9425 2.8834e-04 5.9131e-02 3.5796e-05
  8.1301  1230.00 0.9559 2.8535e-04 5.6217e-02 2.0207e-05
  8.1169  1232.00 0.9688 2.8250e-04 5.3524e-02 2.7713e-05
  8.1037  1234.00 0.9810 2.7753e-04 5.1109e-02 1.0393e-05
  8.0906  1236.00 0.9926 2.7875e-04 4.8814e-02 1.6165e-05
  8.0775  1238.00 1.0038 2.7377e-04 4.6713e-02 1.4434e-05
  8.0645  1240.00 1.0144 2.7612e-04 4.4801e-02 1.7335e-06
  8.0515  1242.00 1.0246 2.7109e-04 4.2906e-02 6.3513e-06
  8.0386  1244.00 1.0345 2.6874e-04 4.1200e-02 0.0000e+00
  8.0257  1246.00 1.0439 2.6650e-04 3.9699e-02 1.1550e-06
  8.0128  1248.00 1.0529 2.6436e-04 3.8204e-02 4.6199e-06
  8.0000  1250.00 1.0616 2.6714e-04 3.6805e-02 5.1963e-06
  7.9872  1252.00 1.0700 2.6720e-04 3.5507e-02 7.5041e-06
  7.9745  1254.00 1.0780 2.6519e-04 3.4300e-02 5.7641e-07
  7.9618  1256.00 1.0858 2.6233e-04 3.3115e-02 1.7897e-05
  7.9491  1258.00 1.0933 2.6042e-04 3.2091e-02 9.8141e-06
  7.9365  1260.00 1.1005 2.6167e-04 3.1011e-02 1.2125e-05
  7.9239  1262.00 1.1075 2.6336e-04 3.0011e-02 1.2703e-05
  7.9114  1264.00 1.1143 2.6522e-04 2.9111e-02 1.2702e-05
  7.8989  1266.00 1.1208 2.6165e-04 2.8289e-02 1.3279e-05
  7.8864  1268.00 1.1271 2.6005e-04 2.7413e-02 1.4434e-05
  7.8740  1270.00 1.1333 2.6165e-04 2.6612e-02 1.4434e-05
  7.8616  1272.00 1.1393 2.6637e-04 2.5900e-02 5.7641e-07
  7.8493  1274.00 1.1450 2.6476e-04 2.5200e-02 0.0000e+00
  7.8370  1276.00 1.1506 2.6322e-04 2.4500e-02 0.0000e+00
  7.8247  1278.00 1.1560 2.6444e-04 2.3812e-02 1.3279e-05
  7.8125  1280.00 1.1613 2.6476e-04 2.3200e-02 0.0000e+00
  7.8003  1282.00 1.1665 2.6440e-04 2.2610e-02 1.1547e-05
  7.7882  1284.00 1.1715 2.6299e-04 2.2090e-02 1.1547e-05
  7.7761  1286.00 1.1763 2.6184e-04 2.1509e-02 1.0392e-05
  7.7640  1288.00 1.1811 2.6299e-04 2.1000e-02 0.0000e+00
  7.7519  1290.00 1.1857 2.6515e-04 2.0500e-02 5.7749e-07
  7.7399  1292.00 1.1902 2.6647e-04 2.0005e-02 6.3513e-06
  7.7280  1294.00 1.1945 2.6184e-04 1.9596e-02 4.6188e-06
  7.7161  1296.00 1.1988 2.6515e-04 1.9103e-02 3.4649e-06
  7.7042  1298.00 1.2029 2.6515e-04 1.8700e-02 5.7749e-07
  7.6923  1300.00 1.2070 2.6501e-04 1.8300e-02 0.0000e+00
  7.6805  1302.00 1.2109 2.6395e-04 1.7900e-02 0.0000e+00
  7.6687  1304.00 1.2148 2.6851e-04 1.7505e-02 5.1963e-06
  7.6570  1306.00 1.2186 2.6395e-04 1.7194e-02 6.9288e-06
  7.6453  1308.00 1.2223 2.6739e-04 1.6807e-02 7.5063e-06
  7.6336  1310.00 1.2259 2.6739e-04 1.6500e-02 5.7749e-07
  7.6220  1312.00 1.2294 2.6739e-04 1.6199e-02 5.7749e-07
  7.6104  1314.00 1.2328 2.6639e-04 1.5889e-02 1.2125e-05
  7.5988  1316.00 1.2362 2.6640e-04 1.5521e-02 2.3672e-05
  7.5873  1318.00 1.2395 2.6739e-04 1.5289e-02 1.3279e-05
  7.5758  1320.00 1.2427 2.6641e-04 1.4999e-02 5.7695e-07
  7.5643  1322.00 1.2458 2.6641e-04 1.4700e-02 5.7749e-07
  7.5529  1324.00 1.2490 2.7086e-04 1.4411e-02 1.3279e-05
  7.5415  1326.00 1.2520 2.6996e-04 1.4188e-02 1.3857e-05
  7.5301  1328.00 1.2550 2.6991e-04 1.3912e-02 1.3857e-05
  7.5188  1330.00 1.2579 2.6639e-04 1.3700e-02 0.0000e+00
  7.5075  1332.00 1.2607 2.6915e-04 1.3489e-02 1.3279e-05
  7.4963  1334.00 1.2635 2.6915e-04 1.3210e-02 1.2125e-05
  7.4850  1336.00 1.2663 2.6996e-04 1.3000e-02 0.0000e+00
  7.4738  1338.00 1.2690 2.6915e-04 1.2800e-02 0.0000e+00
  7.4627  1340.00 1.2716 2.7356e-04 1.2600e-02 0.0000e+00
  7.4516  1342.00 1.2742 2.7360e-04 1.2400e-02 5.7749e-07
  7.4405  1344.00 1.2767 2.6927e-04 1.2200e-02 0.0000e+00
  7.4294  1346.00 1.2792 2.6926e-04 1.2000e-02 0.0000e+00
  7.4184  1348.00 1.2817 2.7292e-04 1.1800e-02 0.0000e+00
  7.4074  1350.00 1.2841 2.7297e-04 1.1602e-02 2.3094e-06
  7.3965  1352.00 1.2865 2.7283e-04 1.1500e-02 0.0000e+00
  7.3855  1354.00 1.2888 2.7279e-04 1.1300e-02 0.0000e+00
  7.3746  1356.00 1.2911 2.7279e-04 1.1103e-02 3.4644e-06
  7.3638  1358.00 1.2934 2.7667e-04 1.0995e-02 5.1963e-06
  7.3529  1360.00 1.2956 2.7292e-04 1.0806e-02 6.9283e-06
  7.3421  1362.00 1.2978 2.7217e-04 1.0693e-02 8.0832e-06
  7.3314  1364.00 1.2999 2.7673e-04 1.0508e-02 9.2377e-06
  7.3206  1366.00 1.3020 2.7672e-04 1.0391e-02 1.0392e-05
  7.3099  1368.00 1.3041 2.7673e-04 1.0210e-02 1.1547e-05
  7.2993  1370.00 1.3062 2.8100e-04 1.0100e-02 0.0000e+00
  7.2886  1372.00 1.3082 2.7596e-04 9.9964e-03 4.1570e-06
  7.2780  1374.00 1.3102 2.8046e-04 9.8670e-03 2.8874e-07
  7.2674  1376.00 1.3121 2.7985e-04 9.7347e-03 4.0435e-07
  7.2569  1378.00 1.3141 2.7624e-04 9.6037e-03 2.3067e-07
  7.2464  1380.00 1.3160 2.7979e-04 9.4784e-03 4.7920e-06
  7.2359  1382.00 1.3178 2.8051e-04 9.3763e-03 4.4457e-06
  7.2254  1384.00 1.3197 2.8010e-04 9.2544e-03 2.8821e-07
  7.2150  1386.00 1.3215 2.8429e-04 9.1338e-03 4.6188e-06
  7.2046  1388.00 1.3233 2.7980e-04 9.0368e-03 3.9263e-06
  7.1942  1390.00 1.3251 2.8394e-04 8.9225e-03 4.2720e-06
  7.1839  1392.00 1.3268 2.8005e-04 8.8290e-03 3.4644e-06
  7.1736  1394.00 1.3285 2.8399e-04 8.7163e-03 3.4639e-06
  7.1633  1396.00 1.3302 2.8429e-04 8.6294e-03 1.7314e-07
  7.1531  1398.00 1.3319 2.8394e-04 8.5444e-03 2.5406e-06
  7.1429  1400.00 1.3336 2.8394e-04 8.4335e-03 1.9056e-06
  7.1327  1402.00 1.3352 2.8394e-04 8.3515e-03 5.7534e-08
  7.1225  1404.00 1.3368 2.8394e-04 8.2719e-03 8.0870e-07
  7.1124  1406.00 1.3384 2.8786e-04 8.1616e-03 1.1561e-07
  7.1023  1408.00 1.3400 2.8786e-04 8.0848e-03 1.1507e-07
  7.0922  1410.00 1.3415 2.8787e-04 8.0094e-03 0.0000e+00
  7.0821  1412.00 1.3431 2.8786e-04 7.9335e-03 1.7319e-06
  7.0721  1414.00 1.3446 2.8786e-04 7.8303e-03 2.3670e-06
  7.0622  1416.00 1.3461 2.9182e-04 7.7563e-03 2.3094e-07
  7.0522  1418.00 1.3476 2.9182e-04 7.6849e-03 5.7803e-08
  7.0423  1420.00 1.3491 2.9182e-04 7.6148e-03 0.0000e+00
  7.0324  1422.00 1.3505 2.9171e-04 7.5458e-03 1.7314e-07
  7.0225  1424.00 1.3520 2.9182e-04 7.4776e-03 1.1534e-07
  7.0126  1426.00 1.3534 2.9177e-04 7.4105e-03 1.1534e-07
  7.0028  1428.00 1.3548 2.9171e-04 7.3433e-03 9.8130e-07
  6.9930  1430.00 1.3562 2.9571e-04 7.2719e-03 1.3281e-06
  6.9832  1432.00 1.3576 2.9576e-04 7.2068e-03 2.8848e-07
  6.9735  1434.00 1.3589 2.9576e-04 7.1442e-03 2.3094e-07
  6.9638  1436.00 1.3603 2.9576e-04 7.0830e-03 1.7314e-07
  6.9541  1438.00 1.3616 2.9571e-04 7.0235e-03 2.3094e-07
  6.9444  1440.00 1.3629 2.9576e-04 6.9655e-03 2.8874e-07
  6.9348  1442.00 1.3643 2.9979e-04 6.9087e-03 2.3094e-07
  6.9252  1444.00 1.3656 2.9620e-04 6.8534e-03 2.3094e-07
  6.9156  1446.00 1.3669 2.9983e-04 6.7995e-03 1.7341e-07
  6.9061  1448.00 1.3681 2.9983e-04 6.7469e-03 1.1534e-07
  6.8966  1450.00 1.3694 2.9983e-04 6.6957e-03 0.0000e+00
  6.8871  1452.00 1.3707 3.0389e-04 6.6460e-03 5.7534e-08
  6.8776  1454.00 1.3719 3.0394e-04 6.5975e-03 0.0000e+00
  6.8681  1456.00 1.3732 3.0394e-04 6.5505e-03 1.1534e-07
  6.8587  1458.00 1.3744 3.0410e-04 6.5047e-03 5.7803e-08
  6.8493  1460.00 1.3756 3.0410e-04 6.4603e-03 5.7803e-08
  6.8400  1462.00 1.3768 3.0862e-04 6.4172e-03 1.1561e-07
  6.8306  1464.00 1.3780 3.0406e-04 6.3753e-03 5.7803e-08
  6.8213  1466.00 1.3792 3.0824e-04 6.3347e-03 0.0000e+00
  6.8120  1468.00 1.3804 3.0829e-04 6.2955e-03 5.7803e-08
  6.8027  1470.00 1.3816 3.0858e-04 6.2577e-03 1.1534e-07
  6.7935  1472.00 1.3828 3.0829e-04 6.2211e-03 5.7803e-08
  6.7843  1474.00 1.3840 3.0829e-04 6.1858e-03 5.7534e-08
  6.7751  1476.00 1.3851 3.0885e-04 6.1518e-03 1.1561e-07
  6.7659  1478.00 1.3863 3.1245e-04 6.1192e-03 1.1561e-07
  6.7568  1480.00 1.3874 3.1312e-04 6.0878e-03 1.7314e-07
  6.7476  1482.00 1.3886 3.1312e-04 6.0580e-03 2.3094e-07
  6.7385  1484.00 1.3897 3.1312e-04 6.0294e-03 2.3094e-07
  6.7295  1486.00 1.3909 3.1737e-04 6.0022e-03 2.3094e-07
  6.7204  1488.00 1.3920 3.1287e-04 5.9765e-03 1.7314e-07
  6.7114  1490.00 1.3931 3.1732e-04 5.9521e-03 2.3094e-07
  6.7024  1492.00 1.3943 3.1710e-04 5.9293e-03 2.3094e-07
  6.6934  1494.00 1.3954 3.1779e-04 5.9079e-03 2.3094e-07
  6.6845  1496.00 1.3965 3.2159e-04 5.8880e-03 1.7314e-07
  6.6756  1498.00 1.3976 3.1779e-04 5.8699e-03 1.7314e-07
  6.6667  1500.00 1.3988 3.2216e-04 5.8532e-03 1.7314e-07
  6.6578  1502.00 1.3999 3.2211e-04 5.8382e-03 1.7341e-07
  6.6489  1504.00 1.4010 3.2644e-04 5.8251e-03 1.7314e-07
  6.6401  1506.00 1.4021 3.2644e-04 5.8136e-03 1.1561e-07
  6.6313  1508.00 1.4033 3.2644e-04 5.8040e-03 1.1561e-07
  6.6225  1510.00 1.4044 3.2645e-04 5.7963e-03 1.1534e-07
  6.6138  1512.00 1.4055 3.2712e-04 5.7906e-03 5.7803e-08
  6.6050  1514.00 1.4066 3.2711e-04 5.7871e-03 0.0000e+00
  6.5963  1516.00 1.4078 3.3162e-04 5.7857e-03 0.0000e+00
  6.5876  1518.00 1.4089 3.3150e-04 5.7866e-03 5.7803e-08
  6.5789  1520.00 1.4100 3.3150e-04 5.7901e-03 1.1561e-07
  6.5703  1522.00 1.4112 3.3150e-04 5.7960e-03 1.7341e-07
  6.5617  1524.00 1.4123 3.3225e-04 5.8048e-03 2.3094e-07
  6.5531  1526.00 1.4135 3.3676e-04 5.8163e-03 2.8874e-07
  6.5445  1528.00 1.4147 3.3676e-04 5.8308e-03 2.8874e-07
  6.5360  1530.00 1.4159 3.3671e-04 5.8486e-03 3.4628e-07
  6.5274  1532.00 1.4171 3.3676e-04 5.8699e-03 4.0435e-07
  6.5189  1534.00 1.4183 3.4123e-04 5.8949e-03 5.1942e-07
  6.5104  1536.00 1.4195 3.4219e-04 5.9238e-03 5.7722e-07
  6.5019  1538.00 1.4207 3.4219e-04 5.9570e-03 6.9283e-07
  6.4935  1540.00 1.4219 3.4666e-04 5.9948e-03 7.5036e-07
  6.4851  1542.00 1.4232 3.4319e-04 6.0376e-03 8.0843e-07
  6.4767  1544.00 1.4245 3.4772e-04 6.0857e-03 8.6596e-07
  6.4683  1546.00 1.4258 3.5221e-04 6.1397e-03 8.0843e-07
  6.4599  1548.00 1.4271 3.5238e-04 6.2001e-03 8.0843e-07
  6.4516  1550.00 1.4285 3.5234e-04 6.2677e-03 9.2377e-07
  6.4433  1552.00 1.4298 3.4903e-04 6.3430e-03 1.0394e-06
  6.4350  1554.00 1.4313 3.5472e-04 6.4267e-03 9.8157e-07
  6.4267  1556.00 1.4327 3.5818e-04 6.5197e-03 9.2377e-07
  6.4185  1558.00 1.4342 3.5489e-04 6.6235e-03 1.1547e-06
  6.4103  1560.00 1.4357 3.5956e-04 6.7389e-03 1.2703e-06
  6.4021  1562.00 1.4373 3.6071e-04 6.8667e-03 6.3502e-07
  6.3939  1564.00 1.4389 3.6531e-04 7.0105e-03 1.5013e-06
  6.3857  1566.00 1.4406 3.6247e-04 7.1776e-03 3.4655e-07
  6.3776  1568.00 1.4423 3.6840e-04 7.3540e-03 6.3502e-07
  6.3694  1570.00 1.4441 3.6842e-04 7.5318e-03 3.4655e-07
  6.3613  1572.00 1.4460 3.7481e-04 7.7776e-03 3.4628e-07
  6.3532  1574.00 1.4480 3.8003e-04 8.0273e-03 1.0969e-06
  6.3452  1576.00 1.4500 3.7845e-04 8.3123e-03 2.4250e-06
  6.3371  1578.00 1.4522 3.8517e-04 8.6315e-03 2.1944e-06
  6.3291  1580.00 1.4545 3.8720e-04 8.9897e-03 5.8313e-06
  6.3211  1582.00 1.4569 3.8930e-04 9.4146e-03 6.5820e-06
  6.3131  1584.00 1.4595 3.9637e-04 9.9121e-03 1.1143e-05
  6.3052  1586.00 1.4623 4.0095e-04 1.0500e-02 5.7749e-07
  6.2972  1588.00 1.4652 4.0583e-04 1.1122e-02 2.4826e-05
  6.2893  1590.00 1.4685 4.1324e-04 1.1911e-02 1.2702e-05
  6.2814  1592.00 1.4720 4.2128e-04 1.2823e-02 2.6558e-05
  6.2735  1594.00 1.4758 4.3090e-04 1.3923e-02 2.7136e-05
  6.2657  1596.00 1.4800 4.4088e-04 1.5237e-02 4.2724e-05
  6.2578  1598.00 1.4846 4.5026e-04 1.6848e-02 5.5426e-05
  6.2500  1600.00 1.4899 4.6723e-04 1.8858e-02 6.7550e-05
  6.2422  1602.00 1.4957 4.8254e-04 2.1392e-02 1.0623e-04
  6.2344  1604.00 1.5024 4.9846e-04 2.4712e-02 1.2933e-04
  6.2267  1606.00 1.5100 5.1592e-04 2.9055e-02 1.7956e-04
  6.2189  1608.00 1.5187 5.3171e-04 3.4828e-02 2.6269e-04
  6.2112  1610.00 1.5286 5.3031e-04 4.2923e-02 3.7297e-04
  6.2035  1612.00 1.5399 5.0564e-04 5.4558e-02 5.2885e-04
  6.1958  1614.00 1.5519 4.3442e-04 7.1745e-02 7.4478e-04
  6.1881  1616.00 1.5631 3.9758e-04 9.8172e-02 8.9085e-04
  6.1805  1618.00 1.5682 6.6598e-04 1.3904e-01 9.6418e-04
  6.1728  1620.00 1.5565 8.4194e-04 1.9741e-01 5.7727e-06
  6.1652  1622.00 1.5147 6.2407e-04 2.6211e-01 4.5033e-04
  6.1576  1624.00 1.4458 4.2669e-04 2.9238e-01 6.0066e-04
  6.1501  1626.00 1.3767 5.6488e-04 2.6792e-01 9.0648e-04
  6.1425  1628.00 1.3309 9.2474e-04 2.1417e-01 1.6062e-04
  6.1350  1630.00 1.3116 8.4394e-04 1.5812e-01 5.9790e-04
  6.1274  1632.00 1.3111 5.4468e-04 1.1360e-01 9.2673e-04
  6.1199  1634.00 1.3198 3.8728e-04 8.3040e-02 8.5448e-04
  6.1125  1636.00 1.3316 4.3438e-04 6.3059e-02 6.4548e-04
  6.1050  1638.00 1.3433 4.8213e-04 4.9911e-02 4.7434e-04
  6.0976  1640.00 1.3540 5.0004e-04 4.1073e-02 3.1469e-04
  6.0901  1642.00 1.3636 4.9566e-04 3.5003e-02 2.3412e-04
  6.0827  1644.00 1.3721 4.8640e-04 3.0755e-02 1.7869e-04
  6.0753  1646.00 1.3797 4.7691e-04 2.7808e-02 1.2471e-04
  6.0680  1648.00 1.3865 4.6140e-04 2.5782e-02 9.4975e-05
  6.0606  1650.00 1.3928 4.5591e-04 2.4471e-02 8.1984e-05
  6.0533  1652.00 1.3985 4.5069e-04 2.3748e-02 5.5138e-05
  6.0459  1654.00 1.4038 4.4627e-04 2.3458e-02 6.7550e-05
  6.0387  1656.00 1.4088 4.4462e-04 2.3657e-02 6.5530e-05
  6.0314  1658.00 1.4136 4.4940e-04 2.4346e-02 5.2545e-05
  6.0241  1660.00 1.4182 4.4774e-04 2.5453e-02 6.1205e-05
  6.0168  1662.00 1.4226 4.4978e-04 2.7045e-02 5.1674e-05
  6.0096  1664.00 1.4268 4.4858e-04 2.9169e-02 7.9097e-05
  6.0024  1666.00 1.4308 4.5436e-04 3.2055e-02 6.3507e-05
  5.9952  1668.00 1.4346 4.5437e-04 3.5665e-02 7.5650e-05
  5.9880  1670.00 1.4379 4.6164e-04 4.0264e-02 7.4698e-05
  5.9809  1672.00 1.4406 4.7554e-04 4.6070e-02 8.0914e-05
  5.9737  1674.00 1.4423 4.8373e-04 5.3034e-02 3.9674e-05
  5.9666  1676.00 1.4425 4.9197e-04 6.1420e-02 2.2809e-05
  5.9595  1678.00 1.4403 5.0381e-04 7.0918e-02 2.0785e-05
  5.9524  1680.00 1.4353 5.2184e-04 8.0584e-02 1.8768e-05
  5.9453  1682.00 1.4271 5.2662e-04 8.8978e-02 1.4066e-04
  5.9382  1684.00 1.4162 5.0575e-04 9.4336e-02 3.0486e-04
  5.9312  1686.00 1.4040 4.8868e-04 9.5077e-02 3.7297e-04
  5.9242  1688.00 1.3924 5.1311e-04 9.1006e-02 3.3920e-04
  5.9172  1690.00 1.3829 5.5854e-04 8.3308e-02 2.2148e-04
  5.9102  1692.00 1.3763 5.8480e-04 7.3736e-02 7.4012e-05
  5.9032  1694.00 1.3726 5.7606e-04 6.3785e-02 9.8149e-05
  5.8962  1696.00 1.3713 5.5160e-04 5.4637e-02 1.5763e-04
  5.8893  1698.00 1.3717 5.4400e-04 4.6655e-02 1.7875e-04
  5.8823  1700.00 1.3731 5.4994e-04 4.0008e-02 1.2500e-04
  5.8754  1702.00 1.3752 5.5460e-04 3.4436e-02 1.5735e-04
  5.8685  1704.00 1.3776 5.6587e-04 2.9902e-02 1.1780e-04
  5.8617  1706.00 1.3802 5.7810e-04 2.6170e-02 8.0256e-05
  5.8548  1708.00 1.3828 5.9442e-04 2.3067e-02 7.6788e-05
  5.8479  1710.00 1.3853 6.1071e-04 2.0543e-02 4.9075e-05
  5.8411  1712.00 1.3878 6.3507e-04 1.8434e-02 3.8691e-05
  5.8343  1714.00 1.3901 6.6761e-04 1.6633e-02 3.8413e-05
  5.8275  1716.00 1.3923 7.0832e-04 1.5120e-02 2.3094e-05
  5.8207  1718.00 1.3945 7.6530e-04 1.3818e-02 2.0801e-05
  5.8140  1720.00 1.3965 8.5097e-04 1.2714e-02 1.5882e-05
  5.8072  1722.00 1.3983 1.0511e-03 1.1799e-02 9.5766e-07
  5.8005  1724.00 1.4002 1.0303e-03 1.0768e-02 6.9546e-04
  5.7937  1726.00 1.4020 7.5396e-04 1.0134e-02 7.5939e-04
  5.7870  1728.00 1.4036 5.7792e-04 9.5431e-03 6.4188e-04
  5.7804  1730.00 1.4051 5.0177e-04 9.0201e-03 5.7117e-04
  5.7737  1732.00 1.4066 4.5621e-04 8.5215e-03 5.1430e-04
  5.7670  1734.00 1.4080 4.3713e-04 8.0579e-03 4.9505e-04
  5.7604  1736.00 1.4094 4.0909e-04 7.7541e-03 4.8125e-04
  5.7537  1738.00 1.4106 3.6698e-04 7.4466e-03 4.3729e-04
  5.7471  1740.00 1.4118 3.4401e-04 7.1086e-03 3.9527e-04
  5.7405  1742.00 1.4130 3.3053e-04 6.8476e-03 3.9744e-04
  5.7339  1744.00 1.4141 3.0708e-04 6.5707e-03 3.8896e-04
  5.7274  1746.00 1.4152 2.9635e-04 6.3163e-03 3.4623e-04
  5.7208  1748.00 1.4162 2.9506e-04 6.0570e-03 3.1436e-04
  5.7143  1750.00 1.4172 2.9848e-04 5.8238e-03 3.1393e-04
  5.7078  1752.00 1.4182 2.8416e-04 5.6557e-03 3.2998e-04
  5.7013  1754.00 1.4192 2.5721e-04 5.5158e-03 3.3738e-04
  5.6948  1756.00 1.4201 2.3384e-04 5.3456e-03 2.9649e-04
  5.6883  1758.00 1.4209 2.2897e-04 5.1862e-03 2.6559e-04
  5.6818  1760.00 1.4218 2.3785e-04 5.0402e-03 2.3978e-04
  5.6754  1762.00 1.4226 2.5262e-04 4.8876e-03 2.0006e-04
  5.6689  1764.00 1.4234 2.7344e-04 4.7688e-03 2.0386e-04
  5.6625  1766.00 1.4242 2.8197e-04 4.6676e-03 2.2631e-04
  5.6561  1768.00 1.4250 2.8104e-04 4.5575e-03 2.2568e-04
  5.6497  1770.00 1.4257 2.7515e-04 4.4346e-03 2.0261e-04
  5.6433  1772.00 1.4265 2.7097e-04 4.3027e-03 1.6610e-04
  5.6370  1774.00 1.4272 2.7327e-04 4.2184e-03 1.5949e-04
  5.6306  1776.00 1.4279 2.8256e-04 4.1537e-03 1.6900e-04
  5.6243  1778.00 1.4286 2.9056e-04 4.0746e-03 1.6704e-04
  5.6180  1780.00 1.4292 2.9339e-04 3.9803e-03 1.4821e-04
  5.6117  1782.00 1.4299 3.0163e-04 3.8993e-03 1.3798e-04
  5.6054  1784.00 1.4305 3.0626e-04 3.8178e-03 1.1510e-04
  5.5991  1786.00 1.4312 3.1848e-04 3.7468e-03 1.0909e-04
  5.5928  1788.00 1.4318 3.2696e-04 3.6870e-03 1.1369e-04
  5.5866  1790.00 1.4324 3.2900e-04 3.6053e-03 9.1906e-05
  5.5804  1792.00 1.4330 3.3438e-04 3.5269e-03 6.8457e-05
  5.5741  1794.00 1.4336 3.4002e-04 3.4832e-03 7.4406e-05
  5.5679  1796.00 1.4342 3.4383e-04 3.4423e-03 8.2831e-05
  5.5617  1798.00 1.4347 3.5500e-04 3.3880e-03 8.0517e-05
  5.5556  1800.00 1.4353 3.6900e-04 3.3262e-03 7.0857e-05
  5.5494  1802.00 1.4358 3.7160e-04 3.2583e-03 4.9745e-05
  5.5432  1804.00 1.4363 3.7908e-04 3.2004e-03 4.2384e-05
  5.5371  1806.00 1.4369 3.8397e-04 3.1459e-03 3.9644e-05
  5.5310  1808.00 1.4374 3.9457e-04 3.0820e-03 4.5999e-05
  5.5249  1810.00 1.4379 3.9691e-04 3.0149e-03 7.1190e-05
  5.5188  1812.00 1.4384 3.9887e-04 2.9504e-03 9.9272e-05
  5.5127  1814.00 1.4389 3.9836e-04 2.8891e-03 1.2589e-04
  5.5066  1816.00 1.4394 3.9973e-04 2.8293e-03 1.5340e-04
  5.5005  1818.00 1.4399 4.0135e-04 2.7730e-03 1.7905e-04
  5.4945  1820.00 1.4404 4.0625e-04 2.7215e-03 2.0032e-04
  5.4885  1822.00 1.4409 4.1212e-04 2.6738e-03 2.1824e-04
  5.4825  1824.00 1.4414 4.1160e-04 2.6290e-03 2.3387e-04
  5.4764  1826.00 1.4419 4.1499e-04 2.5909e-03 2.4341e-04
  5.4705  1828.00 1.4424 4.2058e-04 2.5498e-03 2.5749e-04
  5.4645  1830.00 1.4428 4.3014e-04 2.5107e-03 2.6927e-04
  5.4585  1832.00 1.4433 4.3515e-04 2.4868e-03 2.6481e-04
  5.4526  1834.00 1.4438 4.4231e-04 2.4643e-03 2.6016e-04
  5.4466  1836.00 1.4442 4.4980e-04 2.4183e-03 2.5773e-04
  5.4407  1838.00 1.4447 4.4429e-04 2.3962e-03 2.6203e-04
  5.4348  1840.00 1.4451 4.4078e-04 2.3753e-03 2.6528e-04
  5.4289  1842.00 1.4455 4.4161e-04 2.3490e-03 2.7647e-04
  5.4230  1844.00 1.4460 4.4079e-04 2.3171e-03 2.9973e-04
  5.4171  1846.00 1.4464 4.4395e-04 2.3033e-03 3.0012e-04
  5.4113  1848.00 1.4468 4.5605e-04 2.2930e-03 2.9891e-04
  5.4054  1850.00 1.4473 4.6477e-04 2.2816e-03 2.9960e-04
  5.3996  1852.00 1.4477 4.6960e-04 2.2741e-03 2.9692e-04
  5.3937  1854.00 1.4481 4.7472e-04 2.2663e-03 2.9236e-04
  5.3879  1856.00 1.4485 4.7477e-04 2.2548e-03 2.9449e-04
  5.3821  1858.00 1.4489 4.8014e-04 2.2419e-03 2.9863e-04
  5.3763  1860.00 1.4493 4.9369e-04 2.2289e-03 3.0213e-04
  5.3706  1862.00 1.4497 4.9830e-04 2.2138e-03 3.0247e-04
  5.3648  1864.00 1.4500 5.0549e-04 2.2000e-03 3.0289e-04
  5.3591  1866.00 1.4504 5.1015e-04 2.1866e-03 3.0508e-04
  5.3533  1868.00 1.4508 5.1515e-04 2.1697e-03 3.1177e-04
  5.3476  1870.00 1.4512 5.2607e-04 2.1555e-03 3.1469e-04
  5.3419  1872.00 1.4516 5.2934e-04 2.1477e-03 3.1151e-04
  5.3362  1874.00 1.4519 5.3542e-04 2.1381e-03 3.1135e-04
  5.3305  1876.00 1.4523 5.4057e-04 2.1262e-03 3.1422e-04
  5.3248  1878.00 1.4526 5.5009e-04 2.1115e-03 3.2080e-04
  5.3191  1880.00 1.4530 5.5378e-04 2.0998e-03 3.2496e-04
  5.3135  1882.00 1.4534 5.6054e-04 2.0905e-03 3.2739e-04
  5.3079  1884.00 1.4537 5.7076e-04 2.0796e-03 3.2953e-04
  5.3022  1886.00 1.4541 5.7495e-04 2.0681e-03 3.2991e-04
  5.2966  1888.00 1.4544 5.8465e-04 2.0555e-03 3.3240e-04
  5.2910  1890.00 1.4548 5.9171e-04 2.0426e-03 3.3734e-04
  5.2854  1892.00 1.4551 5.9953e-04 2.0325e-03 3.3798e-04
  5.2798  1894.00 1.4554 6.1166e-04 2.0193e-03 3.4110e-04
  5.2743  1896.00 1.4558 6.1492e-04 2.0084e-03 3.4061e-04
  5.2687  1898.00 1.4561 6.2231e-04 1.9964e-03 3.4361e-04
  5.2632  1900.00 1.4565 6.3215e-04 1.9862e-03 3.4273e-04
  5.2576  1902.00 1.4568 6.3959e-04 1.9763e-03 3.4377e-04
  5.2521  1904.00 1.4571 6.5103e-04 1.9662e-03 3.4832e-04
  5.2466  1906.00 1.4575 6.5701e-04 1.9573e-03 3.5566e-04
  5.2411  1908.00 1.4578 6.6725e-04 1.9473e-03 3.6066e-04
  5.2356  1910.00 1.4581 6.7988e-04 1.9394e-03 3.6587e-04
  5.2301  1912.00 1.4584 6.9257e-04 1.9343e-03 3.6878e-04
  5.2247  1914.00 1.4588 7.0146e-04 1.9319e-03 3.7079e-04
  5.2192  1916.00 1.4591 7.1427e-04 1.9285e-03 3.7424e-04
  5.2138  1918.00 1.4594 7.2713e-04 1.9276e-03 3.7799e-04
  5.2083  1920.00 1.4597 7.3802e-04 1.9304e-03 3.7704e-04
  5.2029  1922.00 1.4601 7.5231e-04 1.9334e-03 3.7959e-04
  5.1975  1924.00 1.4604 7.6346e-04 1.9392e-03 3.8182e-04
  5.1921  1926.00 1.4607 7.7478e-04 1.9486e-03 3.7804e-04
  5.1867  1928.00 1.4610 7.8797e-04 1.9556e-03 3.7556e-04
  5.1814  1930.00 1.4613 7.9940e-04 1.9617e-03 3.7571e-04
  5.1760  1932.00 1.4616 8.0961e-04 1.9684e-03 3.7686e-04
  5.1706  1934.00 1.4619 8.2128e-04 1.9762e-03 3.7629e-04
  5.1653  1936.00 1.4622 8.3610e-04 1.9878e-03 3.7089e-04
  5.1600  1938.00 1.4625 8.4610e-04 2.0009e-03 3.6480e-04
  5.1546  1940.00 1.4628 8.5452e-04 2.0077e-03 3.6543e-04
  5.1493  1942.00 1.4631 8.6797e-04 2.0098e-03 3.7003e-04
  5.1440  1944.00 1.4634 8.8138e-04 2.0171e-03 3.7099e-04
  5.1388  1946.00 1.4637 8.9340e-04 2.0263e-03 3.6860e-04
  5.1335  1948.00 1.4639 9.0189e-04 2.0346e-03 3.6462e-04
  5.1282  1950.00 1.4642 9.1045e-04 2.0380e-03 3.6525e-04
  5.1230  1952.00 1.4645 9.2902e-04 2.0415e-03 3.6795e-04
  5.1177  1954.00 1.4648 9.4257e-04 2.0501e-03 3.6820e-04
  5.1125  1956.00 1.4651 9.5782e-04 2.0559e-03 3.6859e-04
  5.1073  1958.00 1.4653 9.7341e-04 2.0598e-03 3.6877e-04
  5.1020  1960.00 1.4656 9.8509e-04 2.0631e-03 3.6884e-04
  5.0968  1962.00 1.4659 9.9743e-04 2.0698e-03 3.6540e-04
  5.0917  1964.00 1.4662 1.0098e-03 2.0759e-03 3.6313e-04
  5.0865  1966.00 1.4664 1.0235e-03 2.0759e-03 3.6568e-04
  5.0813  1968.00 1.4667 1.0411e-03 2.0785e-03 3.6656e-04
  5.0761  1970.00 1.4670 1.0536e-03 2.0874e-03 3.6111e-04
  5.0710  1972.00 1.4672 1.0636e-03 2.0974e-03 3.5672e-04
  5.0659  1974.00 1.4675 1.0762e-03 2.1008e-03 3.5701e-04
  5.0607  1976.00 1.4678 1.0880e-03 2.0980e-03 3.5927e-04
  5.0556  1978.00 1.4680 1.1057e-03 2.0959e-03 3.6152e-04
  5.0505  1980.00 1.4683 1.1213e-03 2.0968e-03 3.6113e-04
  5.0454  1982.00 1.4686 1.1391e-03 2.0988e-03 3.5645e-04
  5.0403  1984.00 1.4688 1.1490e-03 2.1000e-03 3.5497e-04
  5.0353  1986.00 1.4691 1.1618e-03 2.1002e-03 3.5784e-04
  5.0302  1988.00 1.4693 1.1785e-03 2.1004e-03 3.5929e-04
  5.0251  1990.00 1.4696 1.1945e-03 2.0980e-03 3.6339e-04
  5.0201  1992.00 1.4699 1.2152e-03 2.0968e-03 3.6575e-04
  5.0150  1994.00 1.4702 1.2310e-03 2.1002e-03 3.6235e-04
  5.0100  1996.00 1.4705 1.2449e-03 2.1049e-03 3.6112e-04
  5.0050  1998.00 1.4708 1.2488e-03 2.1109e-03 3.6537e-04
  5.0000  2000.00 1.4705 1.3409e-03 2.1219e-03 3.6936e-04
  4.9900  2004.00 1.4715 1.3308e-03 2.1601e-03 3.8270e-04
  4.9801  2008.00 1.4720 1.3780e-03 2.2296e-03 3.5189e-04
  4.9702  2012.00 1.4725 1.4017e-03 2.2184e-03 3.2837e-04
  4.9603  2016.00 1.4730 1.4375e-03 2.1618e-03 3.6668e-04
  4.9505  2020.00 1.4735 1.4927e-03 2.1531e-03 3.8280e-04
  4.9407  2024.00 1.4741 1.5530e-03 2.1656e-03 3.8461e-04
  4.9310  2028.00 1.4746 1.6126e-03 2.1867e-03 3.9577e-04
  4.9213  2032.00 1.4751 1.6796e-03 2.2234e-03 3.9574e-04
  4.9116  2036.00 1.4757 1.7488e-03 2.2620e-03 3.9612e-04
  4.9020  2040.00 1.4762 1.8230e-03 2.3128e-03 3.8949e-04
  4.8924  2044.00 1.4768 1.8948e-03 2.3674e-03 3.8723e-04
  4.8828  2048.00 1.4773 1.9765e-03 2.4304e-03 3.8123e-04
  4.8733  2052.00 1.4779 2.0633e-03 2.4988e-03 3.7235e-04
  4.8638  2056.00 1.4784 2.1597e-03 2.5593e-03 3.7053e-04
  4.8544  2060.00 1.4790 2.2605e-03 2.6311e-03 3.6256e-04
  4.8450  2064.00 1.4796 2.3847e-03 2.7028e-03 3.6698e-04
  4.8356  2068.00 1.4802 2.5160e-03 2.8065e-03 3.5767e-04
  4.8263  2072.00 1.4808 2.6544e-03 2.9276e-03 3.5095e-04
  4.8170  2076.00 1.4815 2.8186e-03 3.0729e-03 3.4673e-04
  4.8077  2080.00 1.4822 3.0233e-03 3.2622e-03 3.2211e-04
  4.7985  2084.00 1.4829 3.2563e-03 3.5189e-03 2.9910e-04
  4.7893  2088.00 1.4836 3.5223e-03 3.8842e-03 2.7899e-04
  4.7801  2092.00 1.4844 3.8448e-03 4.3522e-03 3.0247e-04
  4.7710  2096.00 1.4851 4.2382e-03 5.0226e-03 4.5509e-04
  4.7619  2100.00 1.4857 4.6460e-03 5.9812e-03 8.5793e-04
  4.7529  2104.00 1.4859 4.8889e-03 7.1822e-03 1.7151e-03
  4.7438  2108.00 1.4858 4.8462e-03 8.3728e-03 2.6663e-03
  4.7348  2112.00 1.4853 4.2473e-03 9.4328e-03 3.9696e-03
  4.7259  2116.00 1.4845 3.3047e-03 9.4979e-03 4.1578e-03
  4.7170  2120.00 1.4842 2.6685e-03 9.1169e-03 3.7264e-03
  4.7081  2124.00 1.4841 2.4045e-03 8.8605e-03 3.4014e-03
  4.6993  2128.00 1.4841 2.2204e-03 8.7997e-03 3.3819e-03
  4.6904  2132.00 1.4842 2.0491e-03 8.6478e-03 3.2006e-03
  4.6817  2136.00 1.4843 1.9444e-03 8.5225e-03 3.1106e-03
  4.6729  2140.00 1.4844 1.7795e-03 8.3771e-03 3.1032e-03
  4.6642  2144.00 1.4846 1.6280e-03 8.0596e-03 2.7807e-03
  4.6555  2148.00 1.4850 1.7419e-03 7.6804e-03 2.2760e-03
  4.6468  2152.00 1.4856 2.0197e-03 7.6153e-03 2.1922e-03
  4.6382  2156.00 1.4861 2.2955e-03 7.6562e-03 2.1644e-03
  4.6296  2160.00 1.4866 2.4588e-03 7.8947e-03 2.4549e-03
  4.6211  2164.00 1.4871 2.6716e-03 7.9104e-03 2.2274e-03
  4.6125  2168.00 1.4877 3.0118e-03 8.2452e-03 2.4517e-03
  4.6041  2172.00 1.4881 3.2320e-03 8.6613e-03 2.8208e-03
  4.5956  2176.00 1.4886 3.4609e-03 9.0238e-03 2.9660e-03
  4.5872  2180.00 1.4890 3.6724e-03 9.6720e-03 3.4838e-03
  4.5788  2184.00 1.4893 3.8578e-03 1.0237e-02 3.8013e-03
  4.5704  2188.00 1.4895 4.0284e-03 1.1066e-02 4.5153e-03
  4.5620  2192.00 1.4895 3.9870e-03 1.1935e-02 5.3773e-03
  4.5537  2196.00 1.4893 3.6817e-03 1.2751e-02 6.2881e-03
  4.5455  2200.00 1.4888 3.0526e-03 1.3537e-02 7.1531e-03
  4.5372  2204.00 1.4883 2.3799e-03 1.3737e-02 7.3201e-03
  4.5290  2208.00 1.4879 1.7087e-03 1.4049e-02 7.7716e-03
  4.5208  2212.00 1.4874 1.0458e-03 1.4056e-02 7.6427e-03
  4.5126  2216.00 1.4871 6.9695e-04 1.3915e-02 7.3722e-03
  4.5045  2220.00 1.4870 5.0679e-04 1.4093e-02 7.6399e-03
  4.4964  2224.00 1.4865 3.5405e-04 1.4720e-02 8.6602e-03
  4.4883  2228.00 1.4859 1.1521e-03 1.4320e-02 7.9274e-03
  4.4803  2232.00 1.4855 1.6085e-03 1.4347e-02 7.9294e-03
  4.4723  2236.00 1.4851 2.1357e-03 1.4183e-02 7.7718e-03
  4.4643  2240.00 1.4846 2.7327e-03 1.4078e-02 7.7241e-03
  4.4563  2244.00 1.4842 3.2999e-03 1.3672e-02 7.2562e-03
  4.4484  2248.00 1.4838 3.6393e-03 1.3182e-02 6.7552e-03
  4.4405  2252.00 1.4835 4.0059e-03 1.2845e-02 6.6906e-03
  4.4326  2256.00 1.4832 4.5491e-03 1.2376e-02 6.3740e-03
  4.4248  2260.00 1.4829 5.0291e-03 1.1650e-02 5.6980e-03
  4.4170  2264.00 1.4829 5.0866e-03 1.0713e-02 4.6283e-03
  4.4092  2268.00 1.4831 5.0092e-03 1.0345e-02 4.4798e-03
  4.4014  2272.00 1.4832 5.0667e-03 9.7647e-03 4.0420e-03
  4.3937  2276.00 1.4833 5.0699e-03 9.2857e-03 3.6755e-03
  4.3860  2280.00 1.4835 5.0437e-03 8.8024e-03 3.3150e-03
  4.3783  2284.00 1.4837 5.0261e-03 8.4251e-03 3.0821e-03
  4.3706  2288.00 1.4839 4.9948e-03 7.9807e-03 2.7208e-03
  4.3630  2292.00 1.4841 4.9337e-03 7.6325e-03 2.4939e-03
  4.3554  2296.00 1.4843 4.8536e-03 7.2378e-03 2.1893e-03
  4.3478  2300.00 1.4845 4.8017e-03 6.9766e-03 2.1153e-03
  4.3403  2304.00 1.4847 4.8250e-03 6.6059e-03 1.9000e-03
  4.3328  2308.00 1.4849 4.7806e-03 6.1597e-03 1.5574e-03
  4.3253  2312.00 1.4851 4.7130e-03 5.7845e-03 1.3862e-03
  4.3178  2316.00 1.4854 4.6349e-03 5.3520e-03 1.1101e-03
  4.3103  2320.00 1.4857 4.5318e-03 4.9476e-03 9.0282e-04
  4.3029  2324.00 1.4861 4.4088e-03 4.5557e-03 6.8189e-04
  4.2955  2328.00 1.4865 4.2613e-03 4.2012e-03 5.0551e-04
  4.2882  2332.00 1.4869 4.1077e-03 3.8885e-03 3.6709e-04
  4.2808  2336.00 1.4873 3.9616e-03 3.6274e-03 2.7285e-04
  4.2735  2340.00 1.4877 3.8176e-03 3.3855e-03 1.8202e-04
  4.2662  2344.00 1.4882 3.6802e-03 3.1850e-03 1.6002e-04
  4.2589  2348.00 1.4886 3.5462e-03 3.0007e-03 1.8574e-04
  4.2517  2352.00 1.4890 3.4220e-03 2.8225e-03 2.0649e-04
  4.2445  2356.00 1.4894 3.3030e-03 2.6581e-03 2.3157e-04
  4.2373  2360.00 1.4898 3.1885e-03 2.5186e-03 2.6380e-04
  4.2301  2364.00 1.4901 3.0945e-03 2.4006e-03 2.8860e-04
  4.2230  2368.00 1.4905 3.0006e-03 2.2868e-03 3.2154e-04
  4.2158  2372.00 1.4909 2.9093e-03 2.1855e-03 3.4388e-04
  4.2087  2376.00 1.4913 2.8244e-03 2.0938e-03 3.7000e-04
  4.2017  2380.00 1.4916 2.7398e-03 2.0036e-03 3.9198e-04
  4.1946  2384.00 1.4920 2.6620e-03 1.9241e-03 4.1152e-04
  4.1876  2388.00 1.4923 2.5886e-03 1.8507e-03 4.1615e-04
  4.1806  2392.00 1.4927 2.5190e-03 1.7813e-03 4.2166e-04
  4.1736  2396.00 1.4930 2.4574e-03 1.7180e-03 4.3111e-04
  4.1667  2400.00 1.4933 2.3974e-03 1.6507e-03 4.3843e-04
  4.1597  2404.00 1.4937 2.3359e-03 1.5976e-03 4.4323e-04
  4.1528  2408.00 1.4940 2.2854e-03 1.5444e-03 4.4468e-04
  4.1459  2412.00 1.4943 2.2334e-03 1.4906e-03 4.5270e-04
  4.1391  2416.00 1.4946 2.1829e-03 1.4423e-03 4.5812e-04
  4.1322  2420.00 1.4949 2.1298e-03 1.3984e-03 4.6210e-04
  4.1254  2424.00 1.4952 2.0876e-03 1.3577e-03 4.5959e-04
  4.1186  2428.00 1.4956 2.0440e-03 1.3165e-03 4.5951e-04
  4.1118  2432.00 1.4959 2.0058e-03 1.2787e-03 4.5996e-04
  4.1051  2436.00 1.4962 1.9690e-03 1.2411e-03 4.6115e-04
  4.0984  2440.00 1.4964 1.9320e-03 1.2029e-03 4.5944e-04
  4.0917  2444.00 1.4967 1.8965e-03 1.1702e-03 4.6134e-04
  4.0850  2448.00 1.4970 1.8651e-03 1.1353e-03 4.6070e-04
  4.0783  2452.00 1.4973 1.8364e-03 1.1027e-03 4.6079e-04
  4.0717  2456.00 1.4976 1.8066e-03 1.0743e-03 4.6136e-04
  4.0650  2460.00 1.4979 1.7764e-03 1.0436e-03 4.5995e-04
  4.0584  2464.00 1.4982 1.7466e-03 1.0163e-03 4.5955e-04
  4.0519  2468.00 1.4985 1.7191e-03 9.9120e-04 4.5673e-04
  4.0453  2472.00 1.4987 1.6946e-03 9.6713e-04 4.5591e-04
  4.0388  2476.00 1.4990 1.6672e-03 9.4425e-04 4.5740e-04
  4.0323  2480.00 1.4993 1.6441e-03 9.2436e-04 4.5510e-04
  4.0258  2484.00 1.4996 1.6250e-03 9.0393e-04 4.5437e-04
  4.0193  2488.00 1.4998 1.5991e-03 8.8696e-04 4.5580e-04
  4.0128  2492.00 1.5001 1.5800e-03 8.7228e-04 4.5469e-04
  4.0064  2496.00 1.5004 1.5596e-03 8.5669e-04 4.5539e-04
  4.0000  2500.00 1.5007 1.5391e-03 8.4680e-04 4.5309e-04
  3.9936  2504.00 1.5009 1.5215e-03 8.4122e-04 4.5750e-04
  3.9872  2508.00 1.5012 1.4929e-03 8.4157e-04 4.5820e-04
  3.9809  2512.00 1.5014 1.4711e-03 8.4952e-04 4.5278e-04
  3.9746  2516.00 1.5017 1.4575e-03 8.4873e-04 4.4545e-04
  3.9683  2520.00 1.5019 1.4480e-03 8.2656e-04 4.4242e-04
  3.9620  2524.00 1.5022 1.4316e-03 7.9519e-04 4.4453e-04
  3.9557  2528.00 1.5024 1.4125e-03 7.6953e-04 4.4406e-04
  3.9495  2532.00 1.5027 1.3989e-03 7.4949e-04 4.4171e-04
  3.9432  2536.00 1.5029 1.3799e-03 7.3373e-04 4.3983e-04
  3.9370  2540.00 1.5032 1.3704e-03 7.2104e-04 4.3781e-04
  3.9308  2544.00 1.5035 1.3583e-03 7.0913e-04 4.3560e-04
  3.9246  2548.00 1.5037 1.3460e-03 6.9908e-04 4.3533e-04
  3.9185  2552.00 1.5040 1.3325e-03 6.9253e-04 4.3457e-04
  3.9124  2556.00 1.5042 1.3230e-03 6.8504e-04 4.3303e-04
  3.9062  2560.00 1.5045 1.3095e-03 6.7959e-04 4.3302e-04
  3.9002  2564.00 1.5047 1.2987e-03 6.7531e-04 4.3345e-04
  3.8941  2568.00 1.5050 1.2919e-03 6.7460e-04 4.3543e-04
  3.8880  2572.00 1.5052 1.2812e-03 6.7878e-04 4.3639e-04
  3.8820  2576.00 1.5055 1.2663e-03 6.8975e-04 4.3784e-04
  3.8760  2580.00 1.5057 1.2595e-03 7.0435e-04 4.3630e-04
  3.8700  2584.00 1.5059 1.2501e-03 7.0194e-04 4.3760e-04
  3.8640  2588.00 1.5062 1.2367e-03 6.8266e-04 4.3976e-04
  3.8580  2592.00 1.5064 1.2272e-03 6.6562e-04 4.3876e-04
  3.8521  2596.00 1.5066 1.2177e-03 6.5311e-04 4.3712e-04
  3.8461  2600.00 1.5069 1.2098e-03 6.4673e-04 4.3678e-04
  3.8403  2604.00 1.5071 1.1988e-03 6.4376e-04 4.3735e-04
  3.8344  2608.00 1.5074 1.1922e-03 6.3955e-04 4.3544e-04
  3.8285  2612.00 1.5076 1.1843e-03 6.3807e-04 4.3743e-04
  3.8226  2616.00 1.5078 1.1748e-03 6.3592e-04 4.3728e-04
  3.8168  2620.00 1.5081 1.1708e-03 6.3562e-04 4.3645e-04
  3.8110  2624.00 1.5083 1.1643e-03 6.3581e-04 4.3877e-04
  3.8052  2628.00 1.5086 1.1548e-03 6.3658e-04 4.3993e-04
  3.7994  2632.00 1.5088 1.1482e-03 6.3694e-04 4.4065e-04
  3.7936  2636.00 1.5090 1.1405e-03 6.3796e-04 4.4032e-04
  3.7879  2640.00 1.5093 1.1378e-03 6.3899e-04 4.4219e-04
  3.7822  2644.00 1.5095 1.1283e-03 6.3972e-04 4.4339e-04
  3.7764  2648.00 1.5097 1.1245e-03 6.3970e-04 4.4441e-04
  3.7707  2652.00 1.5100 1.1180e-03 6.4109e-04 4.4738e-04
  3.7651  2656.00 1.5102 1.1115e-03 6.4241e-04 4.4880e-04
  3.7594  2660.00 1.5105 1.1021e-03 6.4361e-04 4.5105e-04
  3.7538  2664.00 1.5107 1.0956e-03 6.4572e-04 4.5057e-04
  3.7481  2668.00 1.5109 1.0918e-03 6.4742e-04 4.5147e-04
  3.7425  2672.00 1.5112 1.0892e-03 6.4947e-04 4.5289e-04
  3.7369  2676.00 1.5114 1.0815e-03 6.5186e-04 4.5401e-04
  3.7313  2680.00 1.5116 1.0759e-03 6.5456e-04 4.5736e-04
  3.7258  2684.00 1.5119 1.0695e-03 6.5599e-04 4.5700e-04
  3.7202  2688.00 1.5121 1.0657e-03 6.5862e-04 4.5923e-04
  3.7147  2692.00 1.5123 1.0606e-03 6.6026e-04 4.6155e-04
  3.7092  2696.00 1.5126 1.0561e-03 6.6106e-04 4.6297e-04
  3.7037  2700.00 1.5128 1.0492e-03 6.6298e-04 4.6521e-04
  3.6982  2704.00 1.5131 1.0467e-03 6.6794e-04 4.6754e-04
  3.6928  2708.00 1.5133 1.0404e-03 6.7172e-04 4.7006e-04
  3.6873  2712.00 1.5135 1.0341e-03 6.7654e-04 4.7105e-04
  3.6819  2716.00 1.5138 1.0341e-03 6.8054e-04 4.7325e-04
  3.6765  2720.00 1.5140 1.0279e-03 6.8701e-04 4.7525e-04
  3.6711  2724.00 1.5143 1.0217e-03 6.9444e-04 4.7953e-04
  3.6657  2728.00 1.5145 1.0217e-03 6.9988e-04 4.8139e-04
  3.6603  2732.00 1.5147 1.0155e-03 7.0663e-04 4.8384e-04
  3.6550  2736.00 1.5150 1.0118e-03 7.1475e-04 4.8559e-04
  3.6496  2740.00 1.5152 1.0056e-03 7.2334e-04 4.8854e-04
  3.6443  2744.00 1.5155 1.0019e-03 7.3152e-04 4.9421e-04
  3.6390  2748.00 1.5157 9.9577e-04 7.3843e-04 4.9727e-04
  3.6337  2752.00 1.5159 9.9209e-04 7.4765e-04 4.9983e-04
  3.6284  2756.00 1.5162 9.9107e-04 7.5646e-04 5.0442e-04
  3.6232  2760.00 1.5164 9.8370e-04 7.6517e-04 5.0712e-04
  3.6179  2764.00 1.5167 9.7573e-04 7.7465e-04 5.1040e-04
  3.6127  2768.00 1.5169 9.7534e-04 7.8539e-04 5.1366e-04
  3.6075  2772.00 1.5172 9.6973e-04 7.9676e-04 5.1796e-04
  3.6023  2776.00 1.5174 9.6242e-04 8.0902e-04 5.2290e-04
  3.5971  2780.00 1.5177 9.5781e-04 8.2000e-04 5.2540e-04
  3.5919  2784.00 1.5179 9.5223e-04 8.3158e-04 5.2876e-04
  3.5868  2788.00 1.5181 9.4829e-04 8.4600e-04 5.3524e-04
  3.5817  2792.00 1.5184 9.4047e-04 8.5655e-04 5.3808e-04
  3.5765  2796.00 1.5186 9.3827e-04 8.6552e-04 5.3950e-04
  3.5714  2800.00 1.5189 9.2905e-04 8.7473e-04 5.4217e-04
  3.5663  2804.00 1.5191 9.2325e-04 8.8348e-04 5.4421e-04
  3.5612  2808.00 1.5194 9.1904e-04 8.9137e-04 5.4541e-04
  3.5562  2812.00 1.5196 9.1332e-04 9.0256e-04 5.4754e-04
  3.5511  2816.00 1.5199 9.0973e-04 9.1122e-04 5.5021e-04
  3.5461  2820.00 1.5201 9.0550e-04 9.2033e-04 5.5251e-04
  3.5411  2824.00 1.5204 9.0342e-04 9.3038e-04 5.5890e-04
  3.5361  2828.00 1.5207 8.9221e-04 9.3506e-04 5.5976e-04
  3.5311  2832.00 1.5209 8.9021e-04 9.4283e-04 5.6205e-04
  3.5261  2836.00 1.5212 8.8671e-04 9.5235e-04 5.6496e-04
  3.5211  2840.00 1.5214 8.8276e-04 9.6040e-04 5.6685e-04
  3.5162  2844.00 1.5217 8.8094e-04 9.6956e-04 5.6978e-04
  3.5112  2848.00 1.5220 8.8104e-04 9.7845e-04 5.7191e-04
  3.5063  2852.00 1.5223 8.8874e-04 9.8958e-04 5.7735e-04
  3.5014  2856.00 1.5225 8.7777e-04 1.0182e-03 5.9567e-04
  3.4965  2860.00 1.5228 8.5566e-04 1.0298e-03 5.9823e-04
  3.4916  2864.00 1.5231 8.4290e-04 1.0424e-03 6.0002e-04
  3.4867  2868.00 1.5233 8.3206e-04 1.0534e-03 6.0402e-04
  3.4819  2872.00 1.5236 8.1937e-04 1.0660e-03 6.0657e-04
  3.4771  2876.00 1.5239 8.0872e-04 1.0769e-03 6.1148e-04
  3.4722  2880.00 1.5242 7.9820e-04 1.0906e-03 6.1366e-04
  3.4674  2884.00 1.5245 7.8767e-04 1.1039e-03 6.1663e-04
  3.4626  2888.00 1.5247 7.8206e-04 1.1187e-03 6.1842e-04
  3.4578  2892.00 1.5250 7.6947e-04 1.1314e-03 6.2307e-04
  3.4530  2896.00 1.5253 7.6038e-04 1.1454e-03 6.2657e-04
  3.4483  2900.00 1.5256 7.5128e-04 1.1603e-03 6.2959e-04
  3.4435  2904.00 1.5259 7.3869e-04 1.1765e-03 6.3169e-04
  3.4388  2908.00 1.5262 7.3310e-04 1.1923e-03 6.3470e-04
  3.4341  2912.00 1.5265 7.2055e-04 1.2083e-03 6.3797e-04
  3.4294  2916.00 1.5268 7.1143e-04 1.2252e-03 6.4067e-04
  3.4247  2920.00 1.5271 6.9893e-04 1.2421e-03 6.4403e-04
  3.4200  2924.00 1.5274 6.8982e-04 1.2607e-03 6.4607e-04
  3.4153  2928.00 1.5277 6.8074e-04 1.2767e-03 6.5150e-04
  3.4106  2932.00 1.5280 6.6951e-04 1.2967e-03 6.5318e-04
  3.4060  2936.00 1.5284 6.5691e-04 1.3150e-03 6.5727e-04
  3.4014  2940.00 1.5287 6.4220e-04 1.3335e-03 6.6185e-04
  3.3967  2944.00 1.5290 6.3312e-04 1.3530e-03 6.6586e-04
  3.3921  2948.00 1.5293 6.1275e-04 1.3768e-03 6.6579e-04
  3.3875  2952.00 1.5297 5.9805e-04 1.4002e-03 6.6676e-04
  3.3830  2956.00 1.5300 5.7989e-04 1.4268e-03 6.6472e-04
  3.3784  2960.00 1.5304 5.6738e-04 1.4561e-03 6.6055e-04
  3.3738  2964.00 1.5307 5.5613e-04 1.4853e-03 6.5712e-04
  3.3693  2968.00 1.5310 5.4137e-04 1.5146e-03 6.5447e-04
  3.3647  2972.00 1.5314 5.3010e-04 1.5447e-03 6.5164e-04
  3.3602  2976.00 1.5317 5.1545e-04 1.5765e-03 6.4759e-04
  3.3557  2980.00 1.5321 5.0640e-04 1.6083e-03 6.4474e-04
  3.3512  2984.00 1.5325 4.9172e-04 1.6381e-03 6.4515e-04
  3.3467  2988.00 1.5328 4.7919e-04 1.6698e-03 6.4418e-04
  3.3423  2992.00 1.5332 4.6457e-04 1.7001e-03 6.4577e-04
  3.3378  2996.00 1.5336 4.4434e-04 1.7307e-03 6.4820e-04
  3.3333  3000.00 1.5340 4.2749e-04 1.7674e-03 6.4489e-04
  3.3289  3004.00 1.5344 4.0708e-04 1.8065e-03 6.3925e-04
  3.3245  3008.00 1.5348 3.8687e-04 1.8477e-03 6.3295e-04
  3.3201  3012.00 1.5352 3.6340e-04 1.8926e-03 6.2367e-04
  3.3156  3016.00 1.5356 3.4332e-04 1.9383e-03 6.1440e-04
  3.3113  3020.00 1.5360 3.2288e-04 1.9923e-03 5.9785e-04
  3.3069  3024.00 1.5364 3.0443e-04 2.0449e-03 5.8271e-04
  3.3025  3028.00 1.5368 2.8301e-04 2.0984e-03 5.6886e-04
  3.2982  3032.00 1.5372 2.6320e-04 2.1661e-03 5.4257e-04
  3.2938  3036.00 1.5377 2.5325e-04 2.2319e-03 5.1913e-04
  3.2895  3040.00 1.5381 2.4919e-04 2.3013e-03 4.9085e-04
  3.2852  3044.00 1.5385 2.3697e-04 2.3557e-03 4.7925e-04
  3.2808  3048.00 1.5390 2.2323e-04 2.4288e-03 4.5261e-04
  3.2765  3052.00 1.5394 2.1778e-04 2.5121e-03 4.2207e-04
  3.2722  3056.00 1.5399 2.2102e-04 2.5745e-03 4.0844e-04
  3.2680  3060.00 1.5403 2.1553e-04 2.6455e-03 3.9150e-04
  3.2637  3064.00 1.5408 2.1676e-04 2.7288e-03 3.7033e-04
  3.2594  3068.00 1.5413 2.2721e-04 2.7970e-03 3.5360e-04
  3.2552  3072.00 1.5417 2.1830e-04 2.8541e-03 3.5461e-04
  3.2510  3076.00 1.5422 2.0905e-04 2.9413e-03 3.3635e-04
  3.2468  3080.00 1.5427 2.0726e-04 3.0272e-03 3.1891e-04
  3.2425  3084.00 1.5432 2.0567e-04 3.1167e-03 3.0729e-04
  3.2383  3088.00 1.5438 2.1958e-04 3.2096e-03 3.0445e-04
  3.2341  3092.00 1.5443 2.3891e-04 3.3095e-03 2.9567e-04
  3.2300  3096.00 1.5448 2.5182e-04 3.3726e-03 2.8354e-04
  3.2258  3100.00 1.5453 2.5096e-04 3.4802e-03 2.8002e-04
  3.2216  3104.00 1.5459 2.6739e-04 3.5902e-03 2.6856e-04
  3.2175  3108.00 1.5464 2.9179e-04 3.7134e-03 2.6396e-04
  3.2134  3112.00 1.5470 3.2764e-04 3.8138e-03 2.6205e-04
  3.2092  3116.00 1.5476 3.6226e-04 3.9375e-03 2.7412e-04
  3.2051  3120.00 1.5481 4.2886e-04 4.0690e-03 2.9969e-04
  3.2010  3124.00 1.5487 5.6913e-04 4.2141e-03 3.4209e-04
  3.1969  3128.00 1.5492 6.2220e-04 4.1902e-03 2.6288e-07
  3.1929  3132.00 1.5499 5.5916e-04 4.2887e-03 5.1969e-07
  3.1888  3136.00 1.5505 5.4156e-04 4.3924e-03 4.0408e-07
  3.1847  3140.00 1.5512 5.3480e-04 4.4988e-03 1.1534e-07
  3.1807  3144.00 1.5519 5.3757e-04 4.6109e-03 6.9283e-07
  3.1766  3148.00 1.5526 5.4104e-04 4.7265e-03 0.0000e+00
  3.1726  3152.00 1.5533 5.4833e-04 4.8479e-03 4.6188e-07
  3.1686  3156.00 1.5540 5.5168e-04 4.9746e-03 9.2377e-07
  3.1646  3160.00 1.5547 5.5957e-04 5.1067e-03 1.1547e-06
  3.1606  3164.00 1.5555 5.7170e-04 5.2433e-03 7.5036e-07
  3.1566  3168.00 1.5563 5.7999e-04 5.3805e-03 3.1176e-06
  3.1526  3172.00 1.5571 5.8534e-04 5.5458e-03 1.7897e-06
  3.1486  3176.00 1.5579 5.9163e-04 5.6865e-03 1.9051e-06
  3.1446  3180.00 1.5587 5.9959e-04 5.8579e-03 1.0391e-06
  3.1407  3184.00 1.5596 6.0995e-04 6.0306e-03 1.1561e-07
  3.1368  3188.00 1.5605 6.1963e-04 6.2069e-03 1.6744e-06
  3.1328  3192.00 1.5614 6.2697e-04 6.4141e-03 9.8157e-07
  3.1289  3196.00 1.5623 6.3443e-04 6.5934e-03 4.0408e-07
  3.1250  3200.00 1.5633 6.4189e-04 6.8068e-03 1.2125e-06
  3.1211  3204.00 1.5643 6.4939e-04 7.0523e-03 1.4435e-06
  3.1172  3208.00 1.5653 6.5388e-04 7.2715e-03 1.7900e-06
  3.1133  3212.00 1.5664 6.6463e-04 7.5211e-03 4.0435e-07
  3.1095  3216.00 1.5675 6.7281e-04 7.7782e-03 3.8682e-06
  3.1056  3220.00 1.5686 6.8366e-04 8.0641e-03 5.7695e-07
  3.1017  3224.00 1.5698 6.8572e-04 8.3537e-03 9.8130e-07
  3.0979  3228.00 1.5710 6.9142e-04 8.6500e-03 2.5401e-06
  3.0941  3232.00 1.5723 7.0525e-04 8.9798e-03 3.5795e-06
  3.0902  3236.00 1.5736 7.1056e-04 9.3402e-03 1.4432e-06
  3.0864  3240.00 1.5749 7.1840e-04 9.7084e-03 4.6188e-07
  3.0826  3244.00 1.5763 7.2665e-04 1.0099e-02 1.1544e-06
  3.0788  3248.00 1.5778 7.3230e-04 1.0500e-02 0.0000e+00
  3.0750  3252.00 1.5793 7.4027e-04 1.0999e-02 1.7319e-06
  3.0712  3256.00 1.5808 7.4591e-04 1.1503e-02 2.8869e-06
  3.0675  3260.00 1.5825 7.5388e-04 1.2001e-02 1.1544e-06
  3.0637  3264.00 1.5842 7.6192e-04 1.2504e-02 4.6188e-06
  3.0600  3268.00 1.5860 7.7594e-04 1.3107e-02 8.0827e-06
  3.0562  3272.00 1.5878 7.8162e-04 1.3798e-02 2.3094e-06
  3.0525  3276.00 1.5897 7.8396e-04 1.4500e-02 5.7695e-07
  3.0488  3280.00 1.5918 7.9539e-04 1.5214e-02 1.5588e-05
  3.0451  3284.00 1.5939 8.0923e-04 1.6104e-02 4.6188e-06
  3.0414  3288.00 1.5961 8.1496e-04 1.7005e-02 5.1953e-06
  3.0377  3292.00 1.5984 8.2621e-04 1.7911e-02 1.2702e-05
  3.0340  3296.00 1.6009 8.4025e-04 1.9005e-02 5.7738e-06
  3.0303  3300.00 1.6034 8.4584e-04 2.0200e-02 4.9919e-07
  3.0266  3304.00 1.6061 8.4583e-04 2.1496e-02 4.6188e-06
  3.0230  3308.00 1.6089 8.5419e-04 2.2910e-02 1.1547e-05
  3.0193  3312.00 1.6119 8.6550e-04 2.4501e-02 5.7749e-07
  3.0157  3316.00 1.6151 8.7390e-04 2.6217e-02 1.9630e-05
  3.0120  3320.00 1.6184 8.8536e-04 2.8200e-02 5.7749e-07
  3.0084  3324.00 1.6220 8.8216e-04 3.0405e-02 5.1963e-06
  3.0048  3328.00 1.6257 8.9616e-04 3.2821e-02 2.4248e-05
  3.0012  3332.00 1.6297 9.1019e-04 3.5623e-02 2.6558e-05
  2.9976  3336.00 1.6338 9.2750e-04 3.8821e-02 2.3672e-05
  2.9940  3340.00 1.6382 9.3898e-04 4.2421e-02 2.4827e-05
  2.9904  3344.00 1.6429 9.4154e-04 4.6604e-02 4.0413e-06
  2.9869  3348.00 1.6477 9.5875e-04 5.1351e-02 5.8889e-05
  2.9833  3352.00 1.6528 9.8180e-04 5.6915e-02 1.6744e-05
  2.9797  3356.00 1.6580 9.5567e-04 6.3375e-02 2.9444e-05
  2.9762  3360.00 1.6634 9.3524e-04 7.0945e-02 5.1963e-05
  2.9727  3364.00 1.6686 9.7563e-04 8.0006e-02 1.2240e-04
  2.9691  3368.00 1.6736 1.0070e-03 9.0467e-02 7.7941e-05
  2.9656  3372.00 1.6781 1.0127e-03 1.0291e-01 1.2702e-04
  2.9621  3376.00 1.6816 1.0673e-03 1.1748e-01 2.0785e-04
  2.9586  3380.00 1.6834 1.1622e-03 1.3450e-01 2.3094e-04
  2.9551  3384.00 1.6828 1.2748e-03 1.5398e-01 2.1363e-04
  2.9516  3388.00 1.6786 1.3670e-03 1.7560e-01 1.0969e-04
  2.9481  3392.00 1.6700 1.3956e-03 1.9844e-01 6.9290e-05
  2.9446  3396.00 1.6561 1.3091e-03 2.2100e-01 2.3672e-04
  2.9412  3400.00 1.6366 1.2311e-03 2.4128e-01 1.4434e-04
  2.9377  3404.00 1.6123 1.1965e-03 2.5625e-01 1.7320e-04
  2.9343  3408.00 1.5849 1.2166e-03 2.6428e-01 1.7310e-05
  2.9308  3412.00 1.5570 1.2770e-03 2.6410e-01 1.2124e-04
  2.9274  3416.00 1.5309 1.2597e-03 2.5663e-01 1.9629e-04
  2.9240  3420.00 1.5084 1.2106e-03 2.4339e-01 2.4248e-04
  2.9206  3424.00 1.4906 1.1471e-03 2.2620e-01 2.2517e-04
  2.9172  3428.00 1.4778 1.0980e-03 2.0715e-01 1.7898e-04
  2.9137  3432.00 1.4698 1.0719e-03 1.8771e-01 9.8154e-05
  2.9104  3436.00 1.4660 1.0893e-03 1.6910e-01 5.7727e-06
  2.9070  3440.00 1.4658 1.1324e-03 1.5226e-01 7.5054e-05
  2.9036  3444.00 1.4683 1.2103e-03 1.3753e-01 1.5011e-04
  2.9002  3448.00 1.4729 1.3142e-03 1.2515e-01 1.7321e-04
  2.8969  3452.00 1.4790 1.3717e-03 1.1496e-01 6.3509e-05
  2.8935  3456.00 1.4860 1.4007e-03 1.0696e-01 7.5054e-05
  2.8902  3460.00 1.4938 1.4092e-03 1.0090e-01 0.0000e+00
  2.8868  3464.00 1.5020 1.4121e-03 9.6634e-02 3.8680e-05
  2.8835  3468.00 1.5105 1.4324e-03 9.4136e-02 4.1571e-05
  2.8802  3472.00 1.5191 1.4525e-03 9.3150e-02 5.7736e-05
  2.8769  3476.00 1.5278 1.4756e-03 9.3677e-02 8.8914e-05
  2.8736  3480.00 1.5366 1.5191e-03 9.5800e-02 1.1489e-04
  2.8703  3484.00 1.5453 1.5738e-03 9.9528e-02 1.4780e-04
  2.8670  3488.00 1.5539 1.6402e-03 1.0505e-01 1.6743e-04
  2.8637  3492.00 1.5623 1.7212e-03 1.1254e-01 1.6743e-04
  2.8604  3496.00 1.5701 1.7962e-03 1.2222e-01 1.3856e-04
  2.8571  3500.00 1.5772 1.8309e-03 1.3438e-01 8.6608e-05
  2.8539  3504.00 1.5828 1.9205e-03 1.4956e-01 1.9053e-04
  2.8506  3508.00 1.5862 1.9985e-03 1.6773e-01 3.4645e-05
  2.8474  3512.00 1.5864 2.0938e-03 1.8921e-01 1.2702e-04
  2.8441  3516.00 1.5822 2.1286e-03 2.1315e-01 1.7321e-04
  2.8409  3520.00 1.5723 2.1143e-03 2.3916e-01 4.6182e-05
  2.8377  3524.00 1.5556 2.2269e-03 2.6467e-01 3.4636e-05
  2.8345  3528.00 1.5321 2.3340e-03 2.8676e-01 1.6744e-04
  2.8313  3532.00 1.5029 2.3629e-03 3.0248e-01 3.7527e-04
  2.8280  3536.00 1.4703 2.2766e-03 3.0971e-01 5.6581e-04
  2.8249  3540.00 1.4372 2.1386e-03 3.0778e-01 5.9467e-04
  2.8217  3544.00 1.4060 2.0094e-03 2.9775e-01 5.1962e-04
  2.8185  3548.00 1.3787 1.9464e-03 2.8131e-01 3.4063e-04
  2.8153  3552.00 1.3562 2.0020e-03 2.6043e-01 8.3826e-05
  2.8122  3556.00 1.3389 2.1932e-03 2.3711e-01 1.2702e-04
  2.8090  3560.00 1.3267 2.3667e-03 2.1261e-01 9.5808e-06
  2.8058  3564.00 1.3192 2.5404e-03 1.8885e-01 1.7320e-04
  2.8027  3568.00 1.3156 2.7289e-03 1.6619e-01 1.1545e-05
  2.7996  3572.00 1.3154 2.7592e-03 1.4556e-01 1.6165e-04
  2.7964  3576.00 1.3174 2.8644e-03 1.2769e-01 1.0970e-04
  2.7933  3580.00 1.3211 3.0965e-03 1.1186e-01 7.5054e-05
  2.7902  3584.00 1.3258 3.3006e-03 9.8341e-02 4.7343e-05
  2.7871  3588.00 1.3312 3.5260e-03 8.6737e-02 4.2723e-05
  2.7840  3592.00 1.3368 3.7918e-03 7.6934e-02 3.8684e-05
  2.7809  3596.00 1.3423 4.1177e-03 6.8625e-02 2.8868e-05
  2.7778  3600.00 1.3477 4.5614e-03 6.1442e-02 4.8498e-05
  2.7747  3604.00 1.3528 5.2328e-03 5.5347e-02 5.4271e-05
  2.7716  3608.00 1.3570 6.5476e-03 5.0145e-02 5.2540e-05
  2.7685  3612.00 1.3621 6.7017e-03 4.2180e-02 3.8490e-03
  2.7655  3616.00 1.3679 5.4478e-03 3.8309e-02 5.0203e-03
  2.7624  3620.00 1.3730 4.8759e-03 3.4607e-02 4.0445e-03
  2.7594  3624.00 1.3772 4.9880e-03 3.2227e-02 3.4619e-03
  2.7563  3628.00 1.3818 4.4180e-03 2.7262e-02 5.9732e-03
  2.7533  3632.00 1.3861 3.8089e-03 2.6677e-02 4.6180e-03
  2.7503  3636.00 1.3896 4.0653e-03 2.3672e-02 5.0585e-03
  2.7473  3640.00 1.3934 3.6595e-03 2.1255e-02 5.5422e-03
  2.7442  3644.00 1.3971 3.0975e-03 1.9360e-02 5.7286e-03
  2.7412  3648.00 1.4007 2.5191e-03 1.7804e-02 5.7826e-03
  2.7382  3652.00 1.4039 2.1250e-03 1.6644e-02 5.5457e-03
  2.7352  3656.00 1.4069 1.9406e-03 1.5402e-02 5.4491e-03
  2.7322  3660.00 1.4097 1.6700e-03 1.4214e-02 5.5367e-03
  2.7293  3664.00 1.4125 1.3525e-03 1.3157e-02 5.4850e-03
  2.7263  3668.00 1.4151 1.0810e-03 1.2272e-02 5.3481e-03
  2.7233  3672.00 1.4176 8.4490e-04 1.1454e-02 5.2521e-03
  2.7204  3676.00 1.4200 6.6613e-04 1.0737e-02 5.1611e-03
  2.7174  3680.00 1.4222 4.9291e-04 1.0115e-02 5.0642e-03
  2.7144  3684.00 1.4243 3.5112e-04 9.5715e-03 4.8868e-03
  2.7115  3688.00 1.4263 3.4099e-04 8.9194e-03 4.8335e-03
  2.7086  3692.00 1.4282 3.8830e-04 8.3929e-03 4.7466e-03
  2.7056  3696.00 1.4301 4.4851e-04 7.9316e-03 4.6995e-03
  2.7027  3700.00 1.4319 5.4309e-04 7.5020e-03 4.6184e-03
  2.6998  3704.00 1.4336 6.6857e-04 7.1191e-03 4.4837e-03
  2.6969  3708.00 1.4352 7.8836e-04 6.7239e-03 4.3630e-03
  2.6940  3712.00 1.4368 9.0553e-04 6.4071e-03 4.2670e-03
  2.6911  3716.00 1.4383 1.0189e-03 6.1407e-03 4.1243e-03
  2.6882  3720.00 1.4398 1.1083e-03 5.8745e-03 3.9822e-03
  2.6853  3724.00 1.4412 1.1770e-03 5.6489e-03 3.8350e-03
  2.6824  3728.00 1.4425 1.2302e-03 5.4391e-03 3.7098e-03
  2.6795  3732.00 1.4437 1.2817e-03 5.1977e-03 3.6219e-03
  2.6767  3736.00 1.4450 1.3308e-03 4.9840e-03 3.5058e-03
  2.6738  3740.00 1.4462 1.3610e-03 4.8231e-03 3.3690e-03
  2.6709  3744.00 1.4473 1.3914e-03 4.6157e-03 3.3259e-03
  2.6681  3748.00 1.4484 1.4380e-03 4.4582e-03 3.2271e-03
  2.6653  3752.00 1.4495 1.4828e-03 4.2916e-03 3.1407e-03
  2.6624  3756.00 1.4505 1.5078e-03 4.1584e-03 3.0175e-03
  2.6596  3760.00 1.4515 1.5219e-03 4.0173e-03 2.9431e-03
  2.6567  3764.00 1.4524 1.5447e-03 3.8768e-03 2.8694e-03
  2.6539  3768.00 1.4534 1.5691e-03 3.7388e-03 2.7944e-03
  2.6511  3772.00 1.4543 1.5919e-03 3.6293e-03 2.7263e-03
  2.6483  3776.00 1.4552 1.6136e-03 3.5048e-03 2.6383e-03
  2.6455  3780.00 1.4560 1.6290e-03 3.3952e-03 2.5731e-03
  2.6427  3784.00 1.4569 1.6410e-03 3.3011e-03 2.4912e-03
  2.6399  3788.00 1.4577 1.6575e-03 3.2204e-03 2.4331e-03
  2.6371  3792.00 1.4585 1.6656e-03 3.1324e-03 2.3464e-03
  2.6344  3796.00 1.4592 1.6679e-03 3.0486e-03 2.2942e-03
  2.6316  3800.00 1.4600 1.6813e-03 2.9762e-03 2.2299e-03
  2.6288  3804.00 1.4607 1.6922e-03 2.9110e-03 2.1584e-03
  2.6260  3808.00 1.4614 1.6952e-03 2.8339e-03 2.0894e-03
  2.6233  3812.00 1.4620 1.6855e-03 2.7757e-03 2.0193e-03
  2.6205  3816.00 1.4627 1.6831e-03 2.7024e-03 1.9719e-03
  2.6178  3820.00 1.4634 1.6851e-03 2.6404e-03 1.9166e-03
  2.6151  3824.00 1.4640 1.6818e-03 2.5879e-03 1.8554e-03
  2.6123  3828.00 1.4646 1.6731e-03 2.5386e-03 1.7951e-03
  2.6096  3832.00 1.4652 1.6641e-03 2.4782e-03 1.7520e-03
  2.6069  3836.00 1.4658 1.6583e-03 2.4225e-03 1.7076e-03
  2.6042  3840.00 1.4663 1.6551e-03 2.3741e-03 1.6587e-03
  2.6015  3844.00 1.4669 1.6493e-03 2.3331e-03 1.6051e-03
  2.5988  3848.00 1.4674 1.6288e-03 2.2863e-03 1.5619e-03
  2.5961  3852.00 1.4680 1.6255e-03 2.2212e-03 1.5433e-03
  2.5934  3856.00 1.4685 1.6312e-03 2.1841e-03 1.4955e-03
  2.5907  3860.00 1.4690 1.6197e-03 2.1577e-03 1.4382e-03
  2.5880  3864.00 1.4695 1.6083e-03 2.1152e-03 1.4028e-03
  2.5853  3868.00 1.4700 1.5968e-03 2.0838e-03 1.3575e-03
  2.5826  3872.00 1.4704 1.5848e-03 2.0387e-03 1.3302e-03
  2.5800  3876.00 1.4709 1.5758e-03 2.0156e-03 1.2806e-03
  2.5773  3880.00 1.4713 1.5590e-03 1.9770e-03 1.2511e-03
  2.5747  3884.00 1.4718 1.5470e-03 1.9426e-03 1.2191e-03
  2.5720  3888.00 1.4722 1.5347e-03 1.9168e-03 1.1796e-03
  2.5694  3892.00 1.4726 1.5175e-03 1.8832e-03 1.1514e-03
  2.5667  3896.00 1.4731 1.4978e-03 1.8531e-03 1.1211e-03
  2.5641  3900.00 1.4735 1.4863e-03 1.8127e-03 1.1043e-03
  2.5615  3904.00 1.4739 1.4831e-03 1.7795e-03 1.0814e-03
  2.5589  3908.00 1.4743 1.4716e-03 1.7624e-03 1.0420e-03
  2.5562  3912.00 1.4747 1.4571e-03 1.7316e-03 1.0197e-03
  2.5536  3916.00 1.4750 1.4424e-03 1.6974e-03 1.0032e-03
  2.5510  3920.00 1.4754 1.4342e-03 1.6677e-03 9.8339e-04
  2.5484  3924.00 1.4758 1.4227e-03 1.6394e-03 9.6303e-04
  2.5458  3928.00 1.4761 1.4166e-03 1.6152e-03 9.3941e-04
  2.5432  3932.00 1.4765 1.4046e-03 1.5859e-03 9.2369e-04
  2.5406  3936.00 1.4768 1.4013e-03 1.5647e-03 8.9957e-04
  2.5381  3940.00 1.4772 1.3956e-03 1.5381e-03 8.8305e-04
  2.5355  3944.00 1.4775 1.3894e-03 1.5163e-03 8.6243e-04
  2.5329  3948.00 1.4778 1.3869e-03 1.4958e-03 8.4169e-04
  2.5304  3952.00 1.4782 1.3807e-03 1.4759e-03 8.2097e-04
  2.5278  3956.00 1.4785 1.3722e-03 1.4618e-03 7.9555e-04
  2.5252  3960.00 1.4788 1.3692e-03 1.4390e-03 7.8022e-04
  2.5227  3964.00 1.4791 1.3627e-03 1.4214e-03 7.6040e-04
  2.5202  3968.00 1.4794 1.3598e-03 1.4130e-03 7.3141e-04
  2.5176  3972.00 1.4797 1.3541e-03 1.4010e-03 7.0715e-04
  2.5151  3976.00 1.4800 1.3429e-03 1.3861e-03 6.8735e-04
  2.5126  3980.00 1.4803 1.3371e-03 1.3732e-03 6.6606e-04
  2.5100  3984.00 1.4806 1.3253e-03 1.3644e-03 6.4098e-04
  2.5075  3988.00 1.4809 1.2994e-03 1.3500e-03 6.2331e-04
  2.5050  3992.00 1.4812 1.1986e-03 1.3381e-03 6.0361e-04
  2.5025  3996.00 1.4810 1.7138e-03 1.3362e-03 5.7367e-04
  2.4999  4000.13 1.4816 1.6481e-03 1.2667e-03 4.9696e-04
  2.4987  4002.05 1.4816 1.4023e-03 1.2368e-03 4.5937e-04
  2.4975  4003.99 1.4818 1.3384e-03 1.2057e-03 4.2260e-04
  2.4963  4005.91 1.4820 1.2470e-03 1.1745e-03 3.8713e-04
  2.4951  4007.84 1.4822 1.1581e-03 1.1464e-03 3.4912e-04
  2.4939  4009.77 1.4824 1.1582e-03 1.1494e-03 3.4117e-04
  2.4927  4011.70 1.4825 1.1673e-03 1.1511e-03 3.4042e-04
  2.4915  4013.63 1.4826 1.1796e-03 1.1464e-03 3.4608e-04
  2.4903  4015.56 1.4827 1.1910e-03 1.1478e-03 3.4566e-04
  2.4891  4017.48 1.4828 1.1816e-03 1.1509e-03 3.4128e-04
  2.4879  4019.42 1.4829 1.1675e-03 1.1487e-03 3.4162e-04
  2.4867  4021.34 1.4830 1.1542e-03 1.1464e-03 3.4261e-04
  2.4855  4023.27 1.4831 1.1374e-03 1.1458e-03 3.4163e-04
  2.4843  4025.20 1.4833 1.1233e-03 1.1447e-03 3.4048e-04
  2.4832  4027.13 1.4834 1.1129e-03 1.1402e-03 3.4240e-04
  2.4820  4029.06 1.4835 1.1025e-03 1.1395e-03 3.3982e-04
  2.4808  4030.99 1.4836 1.0863e-03 1.1408e-03 3.3525e-04
  2.4796  4032.91 1.4837 1.0731e-03 1.1385e-03 3.3289e-04
  2.4784  4034.84 1.4838 1.0648e-03 1.1349e-03 3.2777e-04
  2.4772  4036.77 1.4839 1.0513e-03 1.1284e-03 3.2586e-04
  2.4760  4038.71 1.4840 1.0463e-03 1.1205e-03 3.2529e-04
  2.4749  4040.63 1.4842 1.0358e-03 1.1130e-03 3.2361e-04
  2.4737  4042.56 1.4843 1.0259e-03 1.1069e-03 3.1828e-04
  2.4725  4044.49 1.4844 1.0136e-03 1.0971e-03 3.1668e-04
  2.4713  4046.42 1.4845 1.0001e-03 1.0858e-03 3.1610e-04
  2.4701  4048.35 1.4846 9.9005e-04 1.0751e-03 3.1547e-04
  2.4690  4050.27 1.4847 9.8282e-04 1.0658e-03 3.1576e-04
  2.4678  4052.21 1.4848 9.7531e-04 1.0543e-03 3.1780e-04
  2.4666  4054.13 1.4849 9.6829e-04 1.0461e-03 3.1651e-04
  2.4655  4056.05 1.4850 9.6116e-04 1.0388e-03 3.1464e-04
  2.4643  4058.00 1.4851 9.5698e-04 1.0313e-03 3.1368e-04
  2.4631  4059.93 1.4852 9.4832e-04 1.0246e-03 3.1274e-04
  2.4619  4061.85 1.4853 9.4306e-04 1.0177e-03 3.1224e-04
  2.4608  4063.77 1.4854 9.3372e-04 1.0111e-03 3.1123e-04
  2.4596  4065.70 1.4855 9.2861e-04 1.0024e-03 3.1325e-04
  2.4584  4067.64 1.4856 9.2390e-04 9.9240e-04 3.1746e-04
  2.4573  4069.56 1.4857 9.1967e-04 9.8669e-04 3.1716e-04
  2.4561  4071.50 1.4858 9.1477e-04 9.8253e-04 3.1495e-04
  2.4549  4073.42 1.4859 9.0719e-04 9.7704e-04 3.1463e-04
  2.4538  4075.34 1.4860 9.0601e-04 9.7279e-04 3.1585e-04
  2.4526  4077.27 1.4861 9.0253e-04 9.7002e-04 3.1504e-04
  2.4515  4079.20 1.4862 8.9905e-04 9.6734e-04 3.1363e-04
  2.4503  4081.13 1.4863 8.9203e-04 9.6402e-04 3.1276e-04
  2.4491  4083.07 1.4864 8.8866e-04 9.6241e-04 3.1214e-04
  2.4480  4084.98 1.4865 8.8401e-04 9.6203e-04 3.1116e-04
  2.4468  4086.92 1.4866 8.7882e-04 9.6023e-04 3.1169e-04
  2.4457  4088.84 1.4867 8.7187e-04 9.5716e-04 3.1308e-04
  2.4445  4090.78 1.4868 8.7012e-04 9.5258e-04 3.1485e-04
  2.4434  4092.71 1.4869 8.6860e-04 9.5043e-04 3.1359e-04
  2.4422  4094.64 1.4870 8.6354e-04 9.4902e-04 3.1171e-04
  2.4411  4096.56 1.4871 8.5972e-04 9.4395e-04 3.1331e-04
  2.4399  4098.50 1.4872 8.5600e-04 9.3841e-04 3.1514e-04
  2.4388  4100.43 1.4873 8.5905e-04 9.3515e-04 3.1231e-04
  2.4376  4102.35 1.4873 8.5468e-04 9.3123e-04 3.1070e-04
  2.4365  4104.28 1.4874 8.5546e-04 9.2650e-04 3.0983e-04
  2.4353  4106.20 1.4875 8.5099e-04 9.2340e-04 3.0670e-04
  2.4342  4108.14 1.4876 8.4692e-04 9.2003e-04 3.0213e-04
  2.4330  4110.07 1.4877 8.4015e-04 9.1185e-04 3.0250e-04
  2.4319  4111.99 1.4878 8.3683e-04 9.0295e-04 3.0387e-04
  2.4308  4113.92 1.4878 8.3697e-04 8.9671e-04 3.0200e-04
  2.4296  4115.85 1.4879 8.3394e-04 8.9046e-04 2.9985e-04
  2.4285  4117.79 1.4880 8.3514e-04 8.8230e-04 3.0071e-04
  2.4274  4119.70 1.4881 8.2973e-04 8.7480e-04 3.0110e-04
  2.4262  4121.64 1.4882 8.3084e-04 8.6704e-04 3.0153e-04
  2.4251  4123.56 1.4883 8.2528e-04 8.5998e-04 3.0127e-04
  2.4239  4125.50 1.4883 8.3031e-04 8.5449e-04 2.9618e-04
  2.4228  4127.42 1.4884 8.2672e-04 8.4959e-04 2.9045e-04
  2.4217  4129.35 1.4885 8.2438e-04 8.4044e-04 2.8901e-04
  2.4206  4131.27 1.4886 8.2069e-04 8.3054e-04 2.8851e-04
  2.4194  4133.21 1.4887 8.2110e-04 8.2301e-04 2.8373e-04
  2.4183  4135.14 1.4887 8.1994e-04 8.1371e-04 2.7917e-04
  2.4172  4137.07 1.4888 8.1743e-04 8.0252e-04 2.7659e-04
  2.4160  4138.99 1.4889 8.1662e-04 7.9256e-04 2.7271e-04
  2.4149  4140.92 1.4890 8.1393e-04 7.8270e-04 2.6826e-04
  2.4138  4142.85 1.4890 8.0876e-04 7.6970e-04 2.6529e-04
  2.4127  4144.79 1.4891 8.0880e-04 7.5746e-04 2.6131e-04
  2.4116  4146.71 1.4892 8.0146e-04 7.4495e-04 2.5757e-04
  2.4104  4148.64 1.4893 7.9831e-04 7.2938e-04 2.5725e-04
  2.4093  4150.57 1.4893 7.9688e-04 7.1303e-04 2.5548e-04
  2.4082  4152.50 1.4894 7.9416e-04 6.9949e-04 2.4884e-04
  2.4071  4154.43 1.4895 7.9279e-04 6.8367e-04 2.4467e-04
  2.4060  4156.36 1.4896 7.9001e-04 6.6756e-04 2.4090e-04
  2.4048  4158.28 1.4897 7.8868e-04 6.5306e-04 2.3565e-04
  2.4037  4160.22 1.4897 7.8173e-04 6.3911e-04 2.3066e-04
  2.4026  4162.14 1.4898 7.7722e-04 6.2259e-04 2.2888e-04
  2.4015  4164.06 1.4899 7.7409e-04 6.0430e-04 2.2930e-04
  2.4004  4165.99 1.4900 7.6946e-04 5.8911e-04 2.2615e-04
  2.3993  4167.92 1.4900 7.6867e-04 5.7427e-04 2.2269e-04
  2.3982  4169.85 1.4901 7.6448e-04 5.5870e-04 2.2023e-04
  2.3971  4171.78 1.4902 7.6379e-04 5.4406e-04 2.1679e-04
  2.3960  4173.71 1.4903 7.6100e-04 5.2999e-04 2.1271e-04
  2.3948  4175.65 1.4904 7.5655e-04 5.1520e-04 2.0978e-04
  2.3937  4177.56 1.4904 7.5541e-04 5.0167e-04 2.0814e-04
  2.3926  4179.50 1.4905 7.5034e-04 4.8862e-04 2.0581e-04
  2.3915  4181.42 1.4906 7.4702e-04 4.7602e-04 2.0313e-04
  2.3904  4183.35 1.4907 7.4574e-04 4.6374e-04 2.0006e-04
  2.3893  4185.29 1.4908 7.4401e-04 4.5263e-04 1.9705e-04
  2.3882  4187.22 1.4908 7.3916e-04 4.4158e-04 1.9509e-04
  2.3871  4189.15 1.4909 7.3574e-04 4.3048e-04 1.9322e-04
  2.3860  4191.06 1.4910 7.3120e-04 4.2060e-04 1.9008e-04
  2.3849  4193.00 1.4911 7.2974e-04 4.1084e-04 1.8680e-04
  2.3838  4194.93 1.4912 7.2316e-04 4.0137e-04 1.8602e-04
  2.3827  4196.85 1.4912 7.2256e-04 3.9307e-04 1.8398e-04
  2.3816  4198.79 1.4913 7.1796e-04 3.8588e-04 1.8056e-04
  2.3805  4200.71 1.4914 7.1519e-04 3.7820e-04 1.7780e-04
  2.3795  4202.63 1.4915 7.1168e-04 3.7072e-04 1.7523e-04
  2.3784  4204.58 1.4915 7.0627e-04 3.6400e-04 1.7212e-04
  2.3773  4206.51 1.4916 7.0125e-04 3.5697e-04 1.6945e-04
  2.3762  4208.44 1.4917 6.9835e-04 3.4873e-04 1.6814e-04
  2.3751  4210.35 1.4918 6.9717e-04 3.4092e-04 1.6644e-04
  2.3740  4212.28 1.4918 6.9236e-04 3.3536e-04 1.6423e-04
  2.3729  4214.22 1.4919 6.8961e-04 3.3039e-04 1.6153e-04
  2.3718  4216.14 1.4920 6.8510e-04 3.2434e-04 1.6011e-04
  2.3707  4218.08 1.4921 6.8014e-04 3.1793e-04 1.5903e-04
  2.3697  4220.00 1.4921 6.7582e-04 3.1149e-04 1.5847e-04
  2.3686  4221.92 1.4922 6.7194e-04 3.0659e-04 1.5708e-04
  2.3675  4223.87 1.4923 6.6757e-04 3.0205e-04 1.5523e-04
  2.3664  4225.79 1.4924 6.6359e-04 2.9752e-04 1.5343e-04
  2.3653  4227.72 1.4924 6.5954e-04 2.9301e-04 1.5160e-04
  2.3643  4229.63 1.4925 6.5708e-04 2.8882e-04 1.5034e-04
  2.3632  4231.57 1.4926 6.5115e-04 2.8496e-04 1.4905e-04
  2.3621  4233.50 1.4926 6.4869e-04 2.8113e-04 1.4771e-04
  2.3610  4235.42 1.4927 6.4660e-04 2.7707e-04 1.4667e-04
  2.3600  4237.36 1.4928 6.4408e-04 2.7342e-04 1.4514e-04
  2.3589  4239.28 1.4929 6.3698e-04 2.6979e-04 1.4408e-04
  2.3578  4241.22 1.4929 6.3506e-04 2.6581e-04 1.4338e-04
  2.3567  4243.15 1.4930 6.3351e-04 2.6201e-04 1.4251e-04
  2.3557  4245.08 1.4931 6.2833e-04 2.5882e-04 1.4096e-04
  2.3546  4247.01 1.4931 6.2530e-04 2.5535e-04 1.4004e-04
  2.3535  4248.94 1.4932 6.2534e-04 2.5213e-04 1.3940e-04
  2.3525  4250.85 1.4933 6.2006e-04 2.4976e-04 1.3784e-04
  2.3514  4252.79 1.4933 6.2005e-04 2.4783e-04 1.3575e-04
  2.3503  4254.72 1.4934 6.1650e-04 2.4542e-04 1.3419e-04
  2.3493  4256.64 1.4935 6.1108e-04 2.4258e-04 1.3342e-04
  2.3482  4258.58 1.4935 6.0880e-04 2.4029e-04 1.3214e-04
  2.3471  4260.50 1.4936 6.0536e-04 2.3811e-04 1.3075e-04
  2.3461  4262.43 1.4937 6.0345e-04 2.3565e-04 1.2968e-04
  2.3450  4264.36 1.4937 5.9786e-04 2.3326e-04 1.2854e-04
  2.3440  4266.28 1.4938 5.9547e-04 2.3187e-04 1.2735e-04
  2.3429  4268.21 1.4939 5.9108e-04 2.3049e-04 1.2617e-04
  2.3418  4270.15 1.4939 5.8657e-04 2.2867e-04 1.2550e-04
  2.3408  4272.08 1.4940 5.8564e-04 2.2681e-04 1.2488e-04
  2.3397  4274.00 1.4941 5.8011e-04 2.2520e-04 1.2404e-04
  2.3387  4275.94 1.4941 5.8009e-04 2.2350e-04 1.2346e-04
  2.3376  4277.85 1.4942 5.7675e-04 2.2193e-04 1.2273e-04
  2.3366  4279.80 1.4943 5.7300e-04 2.2038e-04 1.2197e-04
  2.3355  4281.72 1.4943 5.6965e-04 2.1890e-04 1.2115e-04
  2.3345  4283.65 1.4944 5.6298e-04 2.1751e-04 1.2062e-04
  2.3334  4285.57 1.4944 5.6028e-04 2.1645e-04 1.2013e-04
  2.3324  4287.50 1.4945 5.5761e-04 2.1554e-04 1.1947e-04
  2.3313  4289.43 1.4946 5.5484e-04 2.1442e-04 1.1905e-04
  2.3303  4291.37 1.4946 5.5204e-04 2.1354e-04 1.1835e-04
  2.3292  4293.28 1.4947 5.4985e-04 2.1296e-04 1.1762e-04
  2.3282  4295.22 1.4948 5.4727e-04 2.1220e-04 1.1717e-04
  2.3271  4297.16 1.4948 5.4106e-04 2.1151e-04 1.1662e-04
  2.3261  4299.08 1.4949 5.3884e-04 2.1085e-04 1.1606e-04
  2.3250  4301.00 1.4949 5.3448e-04 2.0990e-04 1.1584e-04
  2.3240  4302.93 1.4950 5.3035e-04 2.0911e-04 1.1586e-04
  2.3229  4304.87 1.4951 5.2965e-04 2.0863e-04 1.1554e-04
  2.3219  4306.80 1.4951 5.2919e-04 2.0821e-04 1.1514e-04
  2.3209  4308.73 1.4952 5.2309e-04 2.0759e-04 1.1500e-04
  2.3198  4310.64 1.4952 5.2284e-04 2.0717e-04 1.1470e-04
  2.3188  4312.58 1.4953 5.1824e-04 2.0719e-04 1.1427e-04
  2.3178  4314.51 1.4953 5.1524e-04 2.0692e-04 1.1417e-04
  2.3167  4316.43 1.4954 5.1094e-04 2.0644e-04 1.1429e-04
  2.3157  4318.37 1.4955 5.0786e-04 2.0638e-04 1.1394e-04
  2.3147  4320.29 1.4955 5.0413e-04 2.0649e-04 1.1347e-04
  2.3136  4322.23 1.4956 5.0296e-04 2.0621e-04 1.1359e-04
  2.3126  4324.16 1.4956 5.0050e-04 2.0574e-04 1.1393e-04
  2.3116  4326.08 1.4957 4.9597e-04 2.0562e-04 1.1386e-04
  2.3105  4328.01 1.4958 4.9704e-04 2.0559e-04 1.1369e-04
  2.3095  4329.94 1.4958 4.9267e-04 2.0549e-04 1.1378e-04
  2.3085  4331.87 1.4959 4.9043e-04 2.0555e-04 1.1393e-04
  2.3075  4333.79 1.4959 4.8648e-04 2.0566e-04 1.1402e-04
  2.3064  4335.72 1.4960 4.8579e-04 2.0567e-04 1.1424e-04
  2.3054  4337.64 1.4960 4.8176e-04 2.0585e-04 1.1425e-04
  2.3044  4339.58 1.4961 4.7971e-04 2.0621e-04 1.1421e-04
  2.3033  4341.50 1.4961 4.7613e-04 2.0654e-04 1.1431e-04
  2.3023  4343.44 1.4962 4.7221e-04 2.0678e-04 1.1453e-04
  2.3013  4345.37 1.4962 4.7419e-04 2.0698e-04 1.1478e-04
  2.3003  4347.30 1.4963 4.7050e-04 2.0725e-04 1.1494e-04
  2.2993  4349.23 1.4964 4.6717e-04 2.0789e-04 1.1515e-04
  2.2982  4351.16 1.4964 4.6395e-04 2.0844e-04 1.1563e-04
  2.2972  4353.09 1.4965 4.6071e-04 2.0892e-04 1.1619e-04
  2.2962  4355.00 1.4965 4.5775e-04 2.0937e-04 1.1678e-04
  2.2952  4356.94 1.4966 4.5441e-04 2.1008e-04 1.1710e-04
  2.2942  4358.88 1.4966 4.5388e-04 2.1105e-04 1.1767e-04
  2.2932  4360.79 1.4967 4.4981e-04 2.1202e-04 1.1837e-04
  2.2922  4362.72 1.4967 4.4772e-04 2.1296e-04 1.1909e-04
  2.2911  4364.66 1.4968 4.4725e-04 2.1378e-04 1.1998e-04
  2.2901  4366.58 1.4968 4.4511e-04 2.1467e-04 1.2078e-04
  2.2891  4368.51 1.4969 4.4014e-04 2.1582e-04 1.2200e-04
  2.2881  4370.44 1.4969 4.3889e-04 2.1703e-04 1.2324e-04
  2.2871  4372.37 1.4970 4.3759e-04 2.1870e-04 1.2395e-04
  2.2861  4374.30 1.4970 4.3429e-04 2.2042e-04 1.2461e-04
  2.2851  4376.23 1.4971 4.3297e-04 2.2174e-04 1.2573e-04
  2.2841  4378.15 1.4971 4.3192e-04 2.2401e-04 1.2709e-04
  2.2831  4380.09 1.4972 4.2690e-04 2.2645e-04 1.2844e-04
  2.2821  4382.01 1.4972 4.2577e-04 2.2859e-04 1.3011e-04
  2.2810  4383.95 1.4973 4.2436e-04 2.3098e-04 1.3152e-04
  2.2801  4385.87 1.4973 4.2122e-04 2.3318e-04 1.3312e-04
  2.2791  4387.79 1.4974 4.1954e-04 2.3598e-04 1.3530e-04
  2.2780  4389.72 1.4974 4.2170e-04 2.3907e-04 1.3724e-04
  2.2771  4391.65 1.4975 4.2387e-04 2.4215e-04 1.3922e-04
  2.2761  4393.58 1.4975 4.2036e-04 2.4531e-04 1.4111e-04
  2.2750  4395.51 1.4976 4.2248e-04 2.4849e-04 1.4300e-04
  2.2740  4397.44 1.4976 4.1914e-04 2.5019e-04 1.4332e-04
  2.2731  4399.38 1.4976 4.2149e-04 2.5211e-04 1.4324e-04
  2.2721  4401.29 1.4977 4.1838e-04 2.5361e-04 1.4361e-04
  2.2711  4403.23 1.4977 4.2069e-04 2.5537e-04 1.4371e-04
  2.2701  4405.15 1.4978 4.1754e-04 2.5739e-04 1.4351e-04
  2.2691  4407.09 1.4978 4.1824e-04 2.5737e-04 1.4218e-04
  2.2681  4409.02 1.4979 4.1560e-04 2.5643e-04 1.4160e-04
  2.2671  4410.94 1.4979 4.1486e-04 2.5488e-04 1.4170e-04
  2.2661  4412.87 1.4980 4.1213e-04 2.5373e-04 1.4136e-04
  2.2651  4414.80 1.4980 4.0942e-04 2.5193e-04 1.4175e-04
  2.2641  4416.73 1.4980 4.1245e-04 2.4982e-04 1.4153e-04
  2.2631  4418.66 1.4981 4.0995e-04 2.4812e-04 1.4072e-04
  2.2621  4420.59 1.4981 4.1107e-04 2.4623e-04 1.4012e-04
  2.2612  4422.51 1.4982 4.1069e-04 2.4463e-04 1.3924e-04
  2.2602  4424.45 1.4982 4.1177e-04 2.4312e-04 1.3822e-04
  2.2592  4426.37 1.4983 4.0865e-04 2.4155e-04 1.3761e-04
  2.2582  4428.31 1.4983 4.0697e-04 2.3984e-04 1.3720e-04
  2.2572  4430.23 1.4984 4.0733e-04 2.3822e-04 1.3670e-04
  2.2562  4432.15 1.4984 4.0396e-04 2.3698e-04 1.3579e-04
  2.2553  4434.08 1.4984 4.0250e-04 2.3590e-04 1.3469e-04
  2.2543  4436.01 1.4985 3.9943e-04 2.3527e-04 1.3426e-04
  2.2533  4437.94 1.4985 4.0210e-04 2.3493e-04 1.3394e-04
  2.2523  4439.87 1.4986 3.9911e-04 2.3456e-04 1.3364e-04
  2.2513  4441.80 1.4986 3.9612e-04 2.3412e-04 1.3343e-04
  2.2504  4443.73 1.4987 3.9309e-04 2.3374e-04 1.3314e-04
  2.2494  4445.65 1.4987 3.9566e-04 2.3390e-04 1.3275e-04
  2.2484  4447.59 1.4988 3.9221e-04 2.3389e-04 1.3281e-04
  2.2474  4449.51 1.4988 3.8901e-04 2.3319e-04 1.3363e-04
  2.2465  4451.45 1.4988 3.8550e-04 2.3299e-04 1.3389e-04
  2.2455  4453.37 1.4989 3.8417e-04 2.3343e-04 1.3345e-04
  2.2445  4455.30 1.4989 3.8134e-04 2.3382e-04 1.3377e-04
  2.2436  4457.22 1.4990 3.8264e-04 2.3452e-04 1.3441e-04
  2.2426  4459.17 1.4990 3.7994e-04 2.3509e-04 1.3522e-04
  2.2416  4461.08 1.4991 3.7777e-04 2.3582e-04 1.3581e-04
  2.2406  4463.01 1.4991 3.7717e-04 2.3704e-04 1.3588e-04
  2.2397  4464.94 1.4991 3.7506e-04 2.3806e-04 1.3661e-04
  2.2387  4466.88 1.4992 3.7365e-04 2.3912e-04 1.3819e-04
  2.2377  4468.79 1.4992 3.7240e-04 2.4029e-04 1.3962e-04
  2.2368  4470.73 1.4993 3.7096e-04 2.4181e-04 1.4068e-04
  2.2358  4472.65 1.4993 3.6966e-04 2.4377e-04 1.4123e-04
  2.2348  4474.59 1.4994 3.6828e-04 2.4557e-04 1.4234e-04
  2.2339  4476.52 1.4994 3.6759e-04 2.4813e-04 1.4460e-04
  2.2329  4478.44 1.4994 3.6690e-04 2.5091e-04 1.4661e-04
  2.2320  4480.37 1.4995 3.6618e-04 2.5382e-04 1.4848e-04
  2.2310  4482.29 1.4995 3.6920e-04 2.5634e-04 1.5080e-04
  2.2300  4484.23 1.4996 3.6843e-04 2.5968e-04 1.5220e-04
  2.2291  4486.16 1.4996 3.6936e-04 2.6431e-04 1.5361e-04
  2.2281  4488.09 1.4996 3.6663e-04 2.6875e-04 1.5531e-04
  2.2272  4490.02 1.4997 3.6753e-04 2.7266e-04 1.5762e-04
  2.2262  4491.94 1.4997 3.6871e-04 2.7707e-04 1.5929e-04
  2.2253  4493.88 1.4997 3.6958e-04 2.8155e-04 1.6097e-04
  2.2243  4495.80 1.4998 3.6655e-04 2.8440e-04 1.6196e-04
  2.2233  4497.74 1.4998 3.6939e-04 2.8726e-04 1.6206e-04
  2.2224  4499.66 1.4999 3.7245e-04 2.9051e-04 1.6168e-04
  2.2214  4501.58 1.4999 3.6992e-04 2.9274e-04 1.6246e-04
  2.2205  4503.51 1.4999 3.7291e-04 2.9508e-04 1.6312e-04
  2.2195  4505.46 1.5000 3.7032e-04 2.9650e-04 1.6250e-04
  2.2186  4507.37 1.5000 3.6823e-04 2.9566e-04 1.6202e-04
  2.2176  4509.30 1.5000 3.7157e-04 2.9503e-04 1.6126e-04
  2.2167  4511.23 1.5001 3.6929e-04 2.9477e-04 1.6011e-04
  2.2157  4513.17 1.5001 3.7254e-04 2.9350e-04 1.6008e-04
  2.2148  4515.10 1.5001 3.7010e-04 2.9135e-04 1.6053e-04
  2.2139  4517.02 1.5002 3.6931e-04 2.8920e-04 1.5903e-04
  2.2129  4518.96 1.5002 3.7000e-04 2.8696e-04 1.5759e-04
  2.2120  4520.88 1.5002 3.6726e-04 2.8402e-04 1.5697e-04
  2.2110  4522.80 1.5003 3.7007e-04 2.8082e-04 1.5664e-04
  2.2101  4524.74 1.5003 3.6898e-04 2.7796e-04 1.5588e-04
  2.2091  4526.67 1.5003 3.6984e-04 2.7537e-04 1.5475e-04
  2.2082  4528.60 1.5004 3.6892e-04 2.7263e-04 1.5378e-04
  2.2073  4530.52 1.5004 3.6980e-04 2.6983e-04 1.5288e-04
  2.2063  4532.46 1.5004 3.6880e-04 2.6715e-04 1.5183e-04
  2.2054  4534.39 1.5005 3.6963e-04 2.6492e-04 1.5028e-04
  2.2044  4536.30 1.5005 3.6821e-04 2.6242e-04 1.4924e-04
  2.2035  4538.23 1.5006 3.6974e-04 2.6009e-04 1.4806e-04
  2.2026  4540.17 1.5006 3.6939e-04 2.5732e-04 1.4736e-04
  2.2016  4542.09 1.5006 3.6741e-04 2.5490e-04 1.4631e-04
  2.2007  4544.03 1.5007 3.6702e-04 2.5220e-04 1.4553e-04
  2.1998  4545.95 1.5007 3.6521e-04 2.4993e-04 1.4464e-04
  2.1988  4547.87 1.5007 3.6585e-04 2.4904e-04 1.4330e-04
  2.1979  4549.82 1.5008 3.6449e-04 2.4711e-04 1.4309e-04
  2.1970  4551.74 1.5008 3.6504e-04 2.4537e-04 1.4268e-04
  2.1960  4553.67 1.5008 3.6756e-04 2.4458e-04 1.4121e-04
  2.1951  4555.60 1.5009 3.6440e-04 2.4357e-04 1.3998e-04
  2.1942  4557.53 1.5009 3.6281e-04 2.4197e-04 1.4013e-04
  2.1932  4559.44 1.5009 3.6321e-04 2.4056e-04 1.4018e-04
  2.1923  4561.38 1.5010 3.6152e-04 2.3976e-04 1.3951e-04
  2.1914  4563.31 1.5010 3.6166e-04 2.3899e-04 1.3883e-04
  2.1905  4565.23 1.5011 3.6018e-04 2.3804e-04 1.3835e-04
  2.1895  4567.17 1.5011 3.6066e-04 2.3764e-04 1.3764e-04
  2.1886  4569.09 1.5011 3.5802e-04 2.3699e-04 1.3761e-04
  2.1877  4571.03 1.5012 3.6073e-04 2.3663e-04 1.3724e-04
  2.1868  4572.96 1.5012 3.5804e-04 2.3624e-04 1.3692e-04
  2.1858  4574.88 1.5012 3.5727e-04 2.3541e-04 1.3709e-04
  2.1849  4576.81 1.5013 3.5825e-04 2.3492e-04 1.3688e-04
  2.1840  4578.73 1.5013 3.5610e-04 2.3451e-04 1.3663e-04
  2.1831  4580.66 1.5013 3.5577e-04 2.3391e-04 1.3659e-04
  2.1822  4582.60 1.5014 3.5727e-04 2.3413e-04 1.3563e-04
  2.1813  4584.53 1.5014 3.5507e-04 2.3398e-04 1.3509e-04
  2.1803  4586.46 1.5014 3.5468e-04 2.3287e-04 1.3562e-04
  2.1794  4588.38 1.5015 3.5321e-04 2.3219e-04 1.3514e-04
  2.1785  4590.31 1.5015 3.5558e-04 2.3136e-04 1.3448e-04
  2.1776  4592.23 1.5015 3.5443e-04 2.3061e-04 1.3374e-04
  2.1767  4594.17 1.5016 3.5499e-04 2.2981e-04 1.3304e-04
  2.1758  4596.10 1.5016 3.5378e-04 2.2875e-04 1.3265e-04
  2.1748  4598.02 1.5016 3.5626e-04 2.2784e-04 1.3197e-04
  2.1739  4599.96 1.5017 3.5647e-04 2.2689e-04 1.3069e-04
  2.1730  4601.89 1.5017 3.5489e-04 2.2588e-04 1.2951e-04
  2.1721  4603.82 1.5017 3.5339e-04 2.2444e-04 1.2881e-04
  2.1712  4605.75 1.5017 3.5185e-04 2.2289e-04 1.2822e-04
  2.1703  4607.68 1.5018 3.5397e-04 2.2127e-04 1.2771e-04
  2.1694  4609.59 1.5018 3.5261e-04 2.1954e-04 1.2710e-04
  2.1685  4611.52 1.5018 3.5099e-04 2.1805e-04 1.2609e-04
  2.1676  4613.46 1.5019 3.5126e-04 2.1684e-04 1.2475e-04
  2.1667  4615.38 1.5019 3.4986e-04 2.1553e-04 1.2354e-04
  2.1658  4617.32 1.5019 3.4818e-04 2.1375e-04 1.2283e-04
  2.1649  4619.24 1.5020 3.4676e-04 2.1201e-04 1.2210e-04
  2.1639  4621.18 1.5020 3.4902e-04 2.1051e-04 1.2106e-04
  2.1630  4623.10 1.5020 3.4768e-04 2.0912e-04 1.1993e-04
  2.1621  4625.03 1.5021 3.4823e-04 2.0759e-04 1.1893e-04
  2.1613  4626.95 1.5021 3.4690e-04 2.0632e-04 1.1766e-04
  2.1604  4628.88 1.5021 3.4550e-04 2.0507e-04 1.1638e-04
  2.1595  4630.81 1.5022 3.4424e-04 2.0315e-04 1.1585e-04
  2.1586  4632.74 1.5022 3.4305e-04 2.0133e-04 1.1523e-04
  2.1576  4634.67 1.5022 3.4176e-04 1.9991e-04 1.1416e-04
  2.1567  4636.61 1.5023 3.4053e-04 1.9837e-04 1.1321e-04
  2.1559  4638.52 1.5023 3.3948e-04 1.9687e-04 1.1225e-04
  2.1550  4640.46 1.5023 3.3815e-04 1.9550e-04 1.1113e-04
  2.1541  4642.40 1.5024 3.4251e-04 1.9416e-04 1.1021e-04
  2.1532  4644.31 1.5024 3.4138e-04 1.9268e-04 1.0948e-04
  2.1523  4646.23 1.5024 3.4026e-04 1.9142e-04 1.0852e-04
  2.1514  4648.18 1.5024 3.3894e-04 1.8986e-04 1.0786e-04
  2.1505  4650.10 1.5025 3.3777e-04 1.8829e-04 1.0722e-04
  2.1496  4652.03 1.5025 3.3680e-04 1.8712e-04 1.0624e-04
  2.1487  4653.96 1.5025 3.3608e-04 1.8605e-04 1.0533e-04
  2.1478  4655.88 1.5026 3.3531e-04 1.8493e-04 1.0445e-04
  2.1469  4657.81 1.5026 3.3455e-04 1.8383e-04 1.0354e-04
  2.1460  4659.75 1.5026 3.3380e-04 1.8238e-04 1.0309e-04
  2.1451  4661.68 1.5027 3.3299e-04 1.8090e-04 1.0263e-04
  2.1443  4663.59 1.5027 3.2841e-04 1.7979e-04 1.0215e-04
  2.1434  4665.53 1.5027 3.2733e-04 1.7914e-04 1.0122e-04
  2.1425  4667.47 1.5028 3.2618e-04 1.7827e-04 1.0052e-04
  2.1416  4669.38 1.5028 3.2525e-04 1.7733e-04 9.9931e-05
  2.1407  4671.33 1.5028 3.2411e-04 1.7640e-04 9.9294e-05
  2.1398  4673.25 1.5028 3.2329e-04 1.7558e-04 9.8583e-05
  2.1390  4675.17 1.5029 3.2332e-04 1.7478e-04 9.7751e-05
  2.1381  4677.09 1.5029 3.2332e-04 1.7382e-04 9.7090e-05
  2.1372  4679.04 1.5029 3.2307e-04 1.7259e-04 9.6729e-05
  2.1363  4680.97 1.5030 3.2306e-04 1.7129e-04 9.6468e-05
  2.1354  4682.90 1.5030 3.2302e-04 1.7022e-04 9.5948e-05
  2.1346  4684.83 1.5030 3.2247e-04 1.6925e-04 9.5317e-05
  2.1337  4686.74 1.5031 3.1617e-04 1.6854e-04 9.4419e-05
  2.1328  4688.67 1.5031 3.1527e-04 1.6795e-04 9.3408e-05
  2.1319  4690.61 1.5031 3.1431e-04 1.6684e-04 9.2973e-05
  2.1311  4692.52 1.5031 3.1357e-04 1.6569e-04 9.2589e-05
  2.1302  4694.46 1.5032 3.1262e-04 1.6486e-04 9.1808e-05
  2.1293  4696.38 1.5032 3.0902e-04 1.6362e-04 9.1262e-05
  2.1284  4698.32 1.5032 3.0915e-04 1.6235e-04 9.0705e-05
  2.1275  4700.24 1.5033 3.0949e-04 1.6125e-04 8.9935e-05
  2.1267  4702.17 1.5033 3.0796e-04 1.5993e-04 8.9380e-05
  2.1258  4704.11 1.5033 3.0802e-04 1.5886e-04 8.8558e-05
  2.1249  4706.04 1.5034 3.0833e-04 1.5782e-04 8.7774e-05
  2.1241  4707.96 1.5034 3.0487e-04 1.5698e-04 8.6942e-05
  2.1232  4709.89 1.5034 3.0508e-04 1.5599e-04 8.6288e-05
  2.1223  4711.83 1.5034 3.0349e-04 1.5490e-04 8.5740e-05
  2.1214  4713.76 1.5035 3.0375e-04 1.5360e-04 8.5436e-05
  2.1206  4715.67 1.5035 3.0034e-04 1.5261e-04 8.4832e-05
  2.1197  4717.60 1.5035 3.0056e-04 1.5190e-04 8.3787e-05
  2.1188  4719.54 1.5036 3.0077e-04 1.5068e-04 8.2994e-05
  2.1180  4721.46 1.5036 2.9548e-04 1.4909e-04 8.2623e-05
  2.1171  4723.40 1.5036 2.9566e-04 1.4777e-04 8.1974e-05
  2.1163  4725.32 1.5036 2.9603e-04 1.4660e-04 8.1283e-05
  2.1154  4727.24 1.5037 2.9631e-04 1.4540e-04 8.0516e-05
  2.1145  4729.18 1.5037 2.9653e-04 1.4422e-04 7.9854e-05
  2.1137  4731.11 1.5037 2.9140e-04 1.4308e-04 7.9325e-05
  2.1128  4733.03 1.5037 2.9182e-04 1.4213e-04 7.8510e-05
  2.1119  4734.96 1.5038 2.9222e-04 1.4124e-04 7.7612e-05
  2.1111  4736.89 1.5038 2.8889e-04 1.4012e-04 7.6959e-05
  2.1102  4738.82 1.5038 2.8746e-04 1.3898e-04 7.6342e-05
  2.1094  4740.75 1.5039 2.8790e-04 1.3767e-04 7.6066e-05
  2.1085  4742.69 1.5039 2.8467e-04 1.3655e-04 7.5560e-05
  2.1077  4744.60 1.5039 2.8538e-04 1.3561e-04 7.4892e-05
  2.1068  4746.54 1.5039 2.8398e-04 1.3466e-04 7.4238e-05
  2.1059  4748.47 1.5040 2.8070e-04 1.3387e-04 7.3391e-05
  2.1051  4750.39 1.5040 2.8137e-04 1.3321e-04 7.2455e-05
  2.1042  4752.33 1.5040 2.8176e-04 1.3222e-04 7.1893e-05
  2.1034  4754.25 1.5041 2.7680e-04 1.3107e-04 7.1524e-05
  2.1025  4756.17 1.5041 2.7743e-04 1.3026e-04 7.0826e-05
  2.1017  4758.10 1.5041 2.7803e-04 1.2936e-04 7.0291e-05
  2.1008  4760.05 1.5041 2.7280e-04 1.2851e-04 6.9664e-05
  2.1000  4761.97 1.5042 2.7339e-04 1.2767e-04 6.8949e-05
  2.0991  4763.90 1.5042 2.7033e-04 1.2664e-04 6.8727e-05
  2.0983  4765.83 1.5042 2.6915e-04 1.2550e-04 6.8686e-05
  2.0974  4767.76 1.5043 2.6984e-04 1.2461e-04 6.8327e-05
  2.0966  4769.67 1.5043 2.6695e-04 1.2377e-04 6.7903e-05
  2.0957  4771.61 1.5043 2.6572e-04 1.2314e-04 6.7284e-05
  2.0949  4773.54 1.5043 2.6637e-04 1.2270e-04 6.6471e-05
  2.0940  4775.46 1.5044 2.6343e-04 1.2205e-04 6.6046e-05
  2.0932  4777.40 1.5044 2.6221e-04 1.2140e-04 6.5549e-05
  2.0924  4779.31 1.5044 2.5919e-04 1.2070e-04 6.5166e-05
  2.0915  4781.26 1.5044 2.5980e-04 1.1981e-04 6.4993e-05
  2.0907  4783.18 1.5045 2.5495e-04 1.1925e-04 6.4457e-05
  2.0898  4785.10 1.5045 2.5581e-04 1.1872e-04 6.4013e-05
  2.0890  4787.05 1.5045 2.5143e-04 1.1824e-04 6.3779e-05
  2.0881  4788.97 1.5046 2.5281e-04 1.1734e-04 6.3924e-05
  2.0873  4790.90 1.5046 2.5417e-04 1.1672e-04 6.3802e-05
  2.0865  4792.83 1.5046 2.4990e-04 1.1664e-04 6.3161e-05
  2.0856  4794.76 1.5046 2.5125e-04 1.1645e-04 6.2579e-05
  2.0848  4796.69 1.5047 2.4687e-04 1.1583e-04 6.2535e-05
  2.0839  4798.60 1.5047 2.4783e-04 1.1545e-04 6.2535e-05
  2.0831  4800.54 1.5047 2.4485e-04 1.1512e-04 6.2380e-05
  2.0823  4802.48 1.5047 2.4383e-04 1.1442e-04 6.2635e-05
  2.0814  4804.39 1.5048 2.4099e-04 1.1386e-04 6.2754e-05
  2.0806  4806.33 1.5048 2.3992e-04 1.1390e-04 6.2281e-05
  2.0798  4808.25 1.5048 2.3710e-04 1.1440e-04 6.1438e-05
  2.0789  4810.19 1.5048 2.3619e-04 1.1435e-04 6.1460e-05
  2.0781  4812.11 1.5049 2.3338e-04 1.1421e-04 6.1642e-05
  2.0773  4814.03 1.5049 2.3266e-04 1.1419e-04 6.1723e-05
  2.0764  4815.96 1.5049 2.2984e-04 1.1383e-04 6.2201e-05
  2.0756  4817.91 1.5050 2.3066e-04 1.1355e-04 6.2493e-05
  2.0748  4819.83 1.5050 2.2630e-04 1.1326e-04 6.2706e-05
  2.0739  4821.76 1.5050 2.2821e-04 1.1332e-04 6.2638e-05
  2.0731  4823.69 1.5050 2.2452e-04 1.1383e-04 6.2065e-05
  2.0723  4825.60 1.5051 2.2654e-04 1.1375e-04 6.2277e-05
  2.0714  4827.54 1.5051 2.2285e-04 1.1334e-04 6.2800e-05
  2.0706  4829.47 1.5051 2.2090e-04 1.1357e-04 6.2500e-05
  2.0698  4831.41 1.5051 2.2101e-04 1.1368e-04 6.2279e-05
  2.0690  4833.32 1.5052 2.1930e-04 1.1369e-04 6.1969e-05
  2.0681  4835.26 1.5052 2.1949e-04 1.1369e-04 6.1683e-05
  2.0673  4837.18 1.5052 2.1778e-04 1.1393e-04 6.1117e-05
  2.0665  4839.12 1.5052 2.1791e-04 1.1420e-04 6.0516e-05
  2.0657  4841.04 1.5053 2.1619e-04 1.1372e-04 6.0826e-05
  2.0649  4842.97 1.5053 2.1262e-04 1.1342e-04 6.0972e-05
  2.0640  4844.89 1.5053 2.1271e-04 1.1306e-04 6.0888e-05
  2.0632  4846.84 1.5053 2.1044e-04 1.1255e-04 6.0963e-05
  2.0624  4848.77 1.5054 2.0667e-04 1.1231e-04 6.0793e-05
  2.0616  4850.70 1.5054 2.0843e-04 1.1194e-04 6.0772e-05
  2.0607  4852.63 1.5054 2.0465e-04 1.1153e-04 6.0802e-05
  2.0599  4854.53 1.5054 2.0651e-04 1.1131e-04 6.0650e-05
  2.0591  4856.47 1.5055 2.0218e-04 1.1124e-04 6.0476e-05
  2.0583  4858.40 1.5055 1.9955e-04 1.1114e-04 6.0244e-05
  2.0575  4860.34 1.5055 1.9897e-04 1.1100e-04 6.0138e-05
  2.0567  4862.25 1.5055 1.9481e-04 1.1067e-04 6.0324e-05
  2.0558  4864.19 1.5056 1.9594e-04 1.1050e-04 6.0191e-05
  2.0550  4866.11 1.5056 1.9177e-04 1.1034e-04 6.0090e-05
  2.0542  4868.05 1.5056 1.8986e-04 1.1084e-04 5.9950e-05
  2.0534  4869.97 1.5056 1.9040e-04 1.1113e-04 6.0054e-05
  2.0526  4871.89 1.5057 1.8871e-04 1.1090e-04 6.0628e-05
  2.0518  4873.84 1.5057 1.8519e-04 1.1120e-04 6.0673e-05
  2.0510  4875.77 1.5057 1.8568e-04 1.1156e-04 6.0629e-05
  2.0501  4877.69 1.5057 1.8393e-04 1.1155e-04 6.1023e-05
  2.0493  4879.62 1.5058 1.8002e-04 1.1160e-04 6.1664e-05
  2.0485  4881.55 1.5058 1.8151e-04 1.1210e-04 6.1804e-05
  2.0477  4883.48 1.5058 1.7743e-04 1.1281e-04 6.1730e-05
  2.0469  4885.41 1.5058 1.7503e-04 1.1327e-04 6.2069e-05
  2.0461  4887.32 1.5059 1.7501e-04 1.1349e-04 6.2572e-05
  2.0453  4889.26 1.5059 1.7097e-04 1.1409e-04 6.2533e-05
  2.0445  4891.19 1.5059 1.6881e-04 1.1499e-04 6.2663e-05
  2.0437  4893.11 1.5060 1.6931e-04 1.1557e-04 6.3377e-05
  2.0429  4895.05 1.5060 1.6738e-04 1.1578e-04 6.4433e-05
  2.0421  4896.97 1.5060 1.6396e-04 1.1660e-04 6.4767e-05
  2.0413  4898.91 1.5060 1.6432e-04 1.1769e-04 6.4886e-05
  2.0405  4900.83 1.5061 1.6249e-04 1.1863e-04 6.5142e-05
  2.0397  4902.75 1.5061 1.5891e-04 1.1910e-04 6.6061e-05
  2.0389  4904.70 1.5061 1.6020e-04 1.1985e-04 6.6870e-05
  2.0381  4906.63 1.5061 1.5623e-04 1.2087e-04 6.7300e-05
  2.0373  4908.55 1.5062 1.5229e-04 1.2174e-04 6.7868e-05
  2.0365  4910.48 1.5062 1.4990e-04 1.2247e-04 6.8650e-05
  2.0357  4912.41 1.5062 1.4977e-04 1.2341e-04 6.9176e-05
  2.0349  4914.34 1.5062 1.4583e-04 1.2433e-04 6.9732e-05
  2.0341  4916.25 1.5063 1.4365e-04 1.2521e-04 7.0700e-05
  2.0333  4918.19 1.5063 1.4372e-04 1.2644e-04 7.1315e-05
  2.0325  4920.12 1.5063 1.4126e-04 1.2802e-04 7.1508e-05
  2.0317  4922.06 1.5063 1.3739e-04 1.2902e-04 7.2399e-05
  2.0309  4923.97 1.5064 1.3370e-04 1.2984e-04 7.3436e-05
  2.0301  4925.91 1.5064 1.3514e-04 1.3076e-04 7.4339e-05
  2.0293  4927.83 1.5064 1.3128e-04 1.3201e-04 7.5549e-05
  2.0285  4929.75 1.5064 1.2743e-04 1.3356e-04 7.6453e-05
  2.0277  4931.70 1.5065 1.2872e-04 1.3488e-04 7.7666e-05
  2.0269  4933.62 1.5065 1.2484e-04 1.3642e-04 7.8699e-05
  2.0261  4935.54 1.5065 1.2236e-04 1.3817e-04 7.9427e-05
  2.0253  4937.47 1.5065 1.1853e-04 1.3971e-04 8.0339e-05
  2.0245  4939.42 1.5066 1.1850e-04 1.4175e-04 8.1293e-05
  2.0237  4941.35 1.5066 1.1591e-04 1.4375e-04 8.2644e-05
  2.0229  4943.28 1.5066 1.1213e-04 1.4547e-04 8.4367e-05
  2.0222  4945.18 1.5066 1.0857e-04 1.4754e-04 8.5576e-05
  2.0214  4947.12 1.5067 1.0996e-04 1.4890e-04 8.7649e-05
  2.0206  4949.05 1.5067 1.0621e-04 1.5050e-04 8.9466e-05
  2.0198  4950.98 1.5067 1.0357e-04 1.5319e-04 9.0415e-05
  2.0190  4952.90 1.5067 1.0344e-04 1.5626e-04 9.2129e-05
  2.0182  4954.84 1.5068 1.0038e-04 1.5971e-04 9.3531e-05
  2.0174  4956.78 1.5068 9.6137e-05 1.6301e-04 9.5080e-05
  2.0167  4958.69 1.5068 9.3311e-05 1.6601e-04 9.6898e-05
  2.0159  4960.61 1.5068 9.3150e-05 1.6825e-04 9.9592e-05
  2.0151  4962.56 1.5069 8.9040e-05 1.7086e-04 1.0200e-04
  2.0143  4964.48 1.5069 8.5967e-05 1.7510e-04 1.0461e-04
  2.0135  4966.40 1.5069 8.5858e-05 1.7977e-04 1.0704e-04
  2.0127  4968.33 1.5069 8.2821e-05 1.8432e-04 1.0959e-04
  2.0120  4970.28 1.5070 7.8812e-05 1.8817e-04 1.1307e-04
  2.0112  4972.21 1.5070 7.9560e-05 1.9279e-04 1.1557e-04
  2.0104  4974.13 1.5070 7.5890e-05 1.9755e-04 1.1789e-04
  2.0096  4976.04 1.5070 7.2248e-05 2.0272e-04 1.2202e-04
  2.0089  4977.97 1.5071 7.2385e-05 2.0857e-04 1.2799e-04
  2.0081  4979.91 1.5071 6.8928e-05 2.1490e-04 1.3343e-04
  2.0073  4981.84 1.5071 6.5022e-05 2.2083e-04 1.3932e-04
  2.0065  4983.78 1.5072 6.5158e-05 2.2722e-04 1.4473e-04
  2.0057  4985.69 1.5072 6.5402e-05 2.3491e-04 1.4850e-04
  2.0050  4987.63 1.5072 6.1832e-05 2.4332e-04 1.5216e-04
  2.0042  4989.55 1.5072 6.4011e-05 2.5405e-04 1.5991e-04
  2.0034  4991.49 1.5073 6.6076e-05 2.6566e-04 1.6692e-04
  2.0026  4993.41 1.5073 6.4960e-05 2.7756e-04 1.7339e-04
  2.0019  4995.33 1.5073 6.7235e-05 2.9079e-04 1.7836e-04
  2.0011  4997.28 1.5074 7.8069e-05 3.0368e-04 1.8398e-04
  2.0003  4999.20 1.5075 1.9337e-04 3.1583e-04 1.9020e-04
  2.0000  5000.00 1.5073 7.0888e-05 3.2486e-04 1.8846e-04
  1.9960  5010.02 1.5075 6.6022e-05 3.9728e-04 2.3692e-04
  1.9920  5020.08 1.5076 7.4268e-05 4.6671e-04 2.7313e-04
  1.9880  5030.18 1.5077 9.2435e-05 5.2782e-04 2.9378e-04
  1.9840  5040.32 1.5077 1.0644e-04 5.8118e-04 3.0096e-04
  1.9800  5050.50 1.5078 1.1702e-04 6.2801e-04 3.0721e-04
  1.9760  5060.73 1.5079 1.2677e-04 6.6475e-04 3.1206e-04
  1.9720  5070.99 1.5079 1.3571e-04 6.9036e-04 3.1045e-04
  1.9680  5081.30 1.5080 1.3355e-04 7.1584e-04 3.1314e-04
  1.9640  5091.65 1.5081 1.2602e-04 7.5873e-04 3.3124e-04
  1.9600  5102.04 1.5082 1.2817e-04 8.4064e-04 3.8248e-04
  1.9560  5112.48 1.5082 1.6632e-04 9.5479e-04 4.5493e-04
  1.9520  5122.95 1.5082 2.3236e-04 1.0471e-03 4.9407e-04
  1.9480  5133.47 1.5082 3.0637e-04 1.1115e-03 4.9687e-04
  1.9440  5144.03 1.5081 3.7097e-04 1.1367e-03 4.7244e-04
  1.9400  5154.64 1.5081 4.3147e-04 1.1161e-03 4.2961e-04
  1.9360  5165.29 1.5080 4.6085e-04 1.0285e-03 3.6127e-04
  1.9320  5175.98 1.5080 4.7225e-04 9.0954e-04 2.9211e-04
  1.9280  5186.72 1.5080 4.6765e-04 7.7785e-04 2.3998e-04
  1.9240  5197.50 1.5081 4.5734e-04 6.5364e-04 2.0348e-04
  1.9200  5208.33 1.5082 4.4279e-04 5.4950e-04 1.7270e-04
  1.9160  5219.21 1.5083 4.3070e-04 4.6668e-04 1.5422e-04
  1.9120  5230.13 1.5084 4.2112e-04 3.9733e-04 1.3815e-04
  1.9080  5241.09 1.5085 4.1234e-04 3.3813e-04 1.2390e-04
  1.9040  5252.10 1.5086 4.0494e-04 2.8863e-04 1.0791e-04
  1.9000  5263.16 1.5087 3.9408e-04 2.4472e-04 9.3755e-05
  1.8960  5274.26 1.5088 3.8439e-04 2.0946e-04 8.2908e-05
  1.8920  5285.41 1.5089 3.8118e-04 1.7724e-04 7.3444e-05
  1.8880  5296.61 1.5090 3.7221e-04 1.5176e-04 6.0870e-05
  1.8840  5307.86 1.5091 3.6275e-04 1.3006e-04 4.8928e-05
  1.8800  5319.15 1.5093 3.5343e-04 1.1164e-04 3.8205e-05
  1.8760  5330.49 1.5094 3.4309e-04 9.5622e-05 3.0753e-05
  1.8720  5341.88 1.5095 3.3094e-04 8.1966e-05 2.5714e-05
  1.8680  5353.32 1.5096 3.1733e-04 7.1202e-05 2.1743e-05
  1.8640  5364.81 1.5097 3.0724e-04 6.2679e-05 1.8913e-05
  1.8600  5376.34 1.5098 2.9677e-04 5.5639e-05 1.7068e-05
  1.8560  5387.93 1.5099 2.8899e-04 5.0662e-05 1.6172e-05
  1.8520  5399.57 1.5100 2.8465e-04 4.7041e-05 1.5601e-05
  1.8480  5411.25 1.5101 2.7527e-04 4.4782e-05 1.4560e-05
  1.8440  5422.99 1.5102 2.7013e-04 4.3027e-05 1.3810e-05
  1.8400  5434.78 1.5102 2.6097e-04 4.1763e-05 1.3512e-05
  1.8360  5446.62 1.5103 2.5761e-04 4.1076e-05 1.3436e-05
  1.8320  5458.52 1.5104 2.5020e-04 4.0733e-05 1.3328e-05
  1.8280  5470.46 1.5105 2.4421e-04 4.0620e-05 1.3282e-05
  1.8240  5482.46 1.5106 2.3632e-04 4.0817e-05 1.3396e-05
  1.8200  5494.50 1.5107 2.3163e-04 4.1232e-05 1.3764e-05
  1.8160  5506.61 1.5108 2.2916e-04 4.1986e-05 1.4314e-05
  1.8120  5518.76 1.5108 2.2541e-04 4.2922e-05 1.4819e-05
  1.8080  5530.97 1.5109 2.2102e-04 4.4021e-05 1.5522e-05
  1.8040  5543.24 1.5110 2.1704e-04 4.5562e-05 1.6488e-05
  1.8000  5555.56 1.5111 2.1091e-04 4.7389e-05 1.7864e-05
  1.7960  5567.93 1.5112 2.1073e-04 5.0096e-05 1.9724e-05
  1.7920  5580.36 1.5112 2.0519e-04 5.3153e-05 2.1853e-05
  1.7880  5592.84 1.5113 2.0517e-04 5.6430e-05 2.3720e-05
  1.7840  5605.38 1.5114 2.0196e-04 5.9756e-05 2.4998e-05
  1.7800  5617.98 1.5115 1.9883e-04 6.2609e-05 2.5941e-05
  1.7760  5630.63 1.5116 1.9907e-04 6.4356e-05 2.5983e-05
  1.7720  5643.34 1.5116 1.9916e-04 6.5721e-05 2.6242e-05
  1.7680  5656.11 1.5117 1.9800e-04 6.7082e-05 2.6875e-05
  1.7640  5668.93 1.5118 1.9686e-04 6.8679e-05 2.8047e-05
  1.7600  5681.82 1.5118 1.9575e-04 7.1310e-05 3.0029e-05
  1.7560  5694.76 1.5119 1.9467e-04 7.4025e-05 3.1754e-05
  1.7520  5707.76 1.5120 1.9695e-04 7.5401e-05 3.2077e-05
  1.7480  5720.82 1.5120 1.9558e-04 7.5157e-05 3.0875e-05
  1.7440  5733.94 1.5121 1.9549e-04 7.2879e-05 2.8556e-05
  1.7400  5747.13 1.5122 1.9496e-04 6.8717e-05 2.5240e-05
  1.7360  5760.37 1.5122 1.9635e-04 6.3021e-05 2.1908e-05
  1.7320  5773.67 1.5123 1.9541e-04 5.6926e-05 1.8898e-05
  1.7280  5787.04 1.5124 1.9163e-04 5.0796e-05 1.6524e-05
  1.7240  5800.46 1.5124 1.9059e-04 4.4913e-05 1.4853e-05
  1.7200  5813.95 1.5125 1.8586e-04 3.9955e-05 1.2785e-05
  1.7160  5827.51 1.5126 1.8462e-04 3.5606e-05 1.0892e-05
  1.7120  5841.12 1.5127 1.8162e-04 3.1899e-05 9.5726e-06
  1.7080  5854.80 1.5127 1.7682e-04 2.8611e-05 8.4928e-06
  1.7040  5868.54 1.5128 1.7561e-04 2.5852e-05 7.7108e-06
  1.7000  5882.35 1.5129 1.7456e-04 2.3435e-05 7.1850e-06
  1.6960  5896.23 1.5129 1.6774e-04 2.1850e-05 6.8561e-06
  1.6920  5910.17 1.5130 1.6666e-04 2.0476e-05 6.6947e-06
  1.6880  5924.17 1.5131 1.5989e-04 1.9492e-05 6.4967e-06
  1.6840  5938.24 1.5131 1.5918e-04 1.8819e-05 6.2181e-06
  1.6800  5952.38 1.5132 1.5468e-04 1.8098e-05 6.0772e-06
  1.6760  5966.59 1.5133 1.5342e-04 1.7788e-05 5.9993e-06
  1.6720  5980.86 1.5133 1.5006e-04 1.7642e-05 5.9918e-06
  1.6680  5995.20 1.5134 1.5121e-04 1.7568e-05 5.8728e-06
  1.6640  6009.62 1.5135 1.4569e-04 1.7653e-05 5.7971e-06
  1.6600  6024.10 1.5135 1.4343e-04 1.7885e-05 5.8378e-06
  1.6560  6038.65 1.5136 1.4451e-04 1.8075e-05 5.7233e-06
  1.6520  6053.27 1.5137 1.4169e-04 1.8426e-05 5.7346e-06
  1.6480  6067.96 1.5137 1.3949e-04 1.8848e-05 5.7788e-06
  1.6440  6082.73 1.5138 1.3668e-04 1.9341e-05 5.9246e-06
  1.6400  6097.56 1.5139 1.3239e-04 1.9914e-05 6.0077e-06
  1.6360  6112.47 1.5139 1.3225e-04 2.0637e-05 6.0411e-06
  1.6320  6127.45 1.5140 1.3231e-04 2.1350e-05 6.1463e-06
  1.6280  6142.51 1.5140 1.3002e-04 2.2135e-05 6.3312e-06
  1.6240  6157.64 1.5141 1.2772e-04 2.2865e-05 6.4912e-06
  1.6200  6172.84 1.5142 1.2547e-04 2.3490e-05 6.7440e-06
  1.6160  6188.12 1.5142 1.2179e-04 2.4319e-05 6.8467e-06
  1.6120  6203.47 1.5143 1.1965e-04 2.5407e-05 7.1534e-06
  1.6080  6218.90 1.5143 1.1848e-04 2.6534e-05 7.5660e-06
  1.6040  6234.41 1.5144 1.1446e-04 2.7722e-05 8.0961e-06
  1.6000  6250.00 1.5145 1.1450e-04 2.8956e-05 8.6300e-06
  1.5960  6265.66 1.5145 1.1457e-04 3.0422e-05 9.2639e-06
  1.5920  6281.41 1.5146 1.0894e-04 3.1672e-05 9.8841e-06
  1.5880  6297.23 1.5146 1.0892e-04 3.2837e-05 1.0472e-05
  1.5840  6313.13 1.5147 1.0890e-04 3.4112e-05 1.1098e-05
  1.5800  6329.11 1.5148 1.0337e-04 3.5459e-05 1.1801e-05
  1.5760  6345.18 1.5148 1.0351e-04 3.7169e-05 1.2673e-05
  1.5720  6361.32 1.5149 1.0119e-04 3.8629e-05 1.3699e-05
  1.5680  6377.55 1.5149 1.0193e-04 4.0501e-05 1.4969e-05
  1.5640  6393.86 1.5150 9.9098e-05 4.2806e-05 1.6516e-05
  1.5600  6410.26 1.5150 9.6858e-05 4.5463e-05 1.8376e-05
  1.5560  6426.73 1.5151 9.3572e-05 4.9342e-05 2.0656e-05
  1.5520  6443.30 1.5152 9.5710e-05 5.4133e-05 2.3127e-05
  1.5480  6459.95 1.5152 9.4575e-05 5.9189e-05 2.5863e-05
  1.5440  6476.68 1.5153 9.5728e-05 6.3818e-05 2.8216e-05
  1.5400  6493.51 1.5153 9.6755e-05 6.7135e-05 2.9500e-05
  1.5360  6510.42 1.5154 9.9627e-05 6.7625e-05 2.8478e-05
  1.5320  6527.42 1.5154 9.8937e-05 6.6579e-05 2.6982e-05
  1.5280  6544.50 1.5155 9.7839e-05 6.4687e-05 2.5818e-05
  1.5240  6561.68 1.5155 9.6268e-05 6.2935e-05 2.5007e-05
  1.5200  6578.95 1.5156 9.6651e-05 6.1709e-05 2.4780e-05
  1.5160  6596.31 1.5156 9.3542e-05 6.1466e-05 2.4964e-05
  1.5120  6613.76 1.5157 9.0216e-05 6.2499e-05 2.6069e-05
  1.5080  6631.30 1.5157 8.9494e-05 6.5110e-05 2.8283e-05
  1.5040  6648.94 1.5158 8.8359e-05 6.9627e-05 3.2036e-05
  1.5000  6666.67 1.5158 8.7392e-05 7.6934e-05 3.7319e-05
  1.4960  6684.49 1.5159 9.0629e-05 8.3811e-05 4.2016e-05
  1.4920  6702.41 1.5159 9.5593e-05 8.7570e-05 4.2435e-05
  1.4880  6720.43 1.5160 9.5201e-05 8.7245e-05 3.9881e-05
  1.4840  6738.54 1.5160 9.4439e-05 8.3892e-05 3.6733e-05
  1.4800  6756.76 1.5161 9.5628e-05 8.1067e-05 3.5700e-05
  1.4760  6775.07 1.5161 9.6767e-05 8.0582e-05 3.6724e-05
  1.4720  6793.48 1.5162 9.6209e-05 8.1318e-05 3.7742e-05
  1.4680  6811.99 1.5162 9.2421e-05 8.3031e-05 3.8976e-05
  1.4640  6830.60 1.5163 9.2944e-05 8.5660e-05 4.0823e-05
  1.4600  6849.31 1.5163 8.9990e-05 8.9467e-05 4.3597e-05
  1.4560  6868.13 1.5164 9.3431e-05 9.9615e-05 5.2441e-05
  1.4520  6887.05 1.5164 9.9766e-05 1.1373e-04 6.3737e-05
  1.4480  6906.08 1.5164 1.1357e-04 1.2284e-04 6.7623e-05
  1.4440  6925.21 1.5165 1.2571e-04 1.2087e-04 5.9975e-05
  1.4400  6944.44 1.5165 1.3072e-04 1.0400e-04 4.3956e-05
  1.4360  6963.79 1.5165 1.2821e-04 8.6989e-05 3.3152e-05
  1.4320  6983.24 1.5166 1.2472e-04 7.4140e-05 2.8370e-05
  1.4280  7002.80 1.5166 1.2293e-04 6.5389e-05 2.5143e-05
  1.4240  7022.47 1.5167 1.2034e-04 5.8598e-05 2.1722e-05
  1.4200  7042.25 1.5167 1.2153e-04 5.1168e-05 1.7766e-05
  1.4160  7062.15 1.5168 1.1699e-04 4.4213e-05 1.4685e-05
  1.4120  7082.15 1.5168 1.1477e-04 3.8297e-05 1.2865e-05
  1.4080  7102.27 1.5169 1.1362e-04 3.3742e-05 1.1100e-05
  1.4040  7122.51 1.5169 1.1047e-04 3.0229e-05 9.5222e-06
  1.4000  7142.86 1.5170 1.0908e-04 2.7594e-05 8.2725e-06
  1.3960  7163.32 1.5170 1.0462e-04 2.5756e-05 7.7172e-06
  1.3920  7183.91 1.5171 1.0566e-04 2.4524e-05 7.1808e-06
  1.3880  7204.61 1.5171 1.0114e-04 2.3767e-05 6.7723e-06
  1.3840  7225.43 1.5171 1.0225e-04 2.3367e-05 6.6506e-06
  1.3800  7246.38 1.5172 9.7795e-05 2.2896e-05 6.5588e-06
  1.3760  7267.44 1.5172 9.8871e-05 2.2186e-05 6.3183e-06
  1.3720  7288.63 1.5173 9.4412e-05 2.1378e-05 6.0051e-06
  1.3680  7309.94 1.5173 9.2923e-05 2.0507e-05 5.7035e-06
  1.3640  7331.38 1.5174 9.4171e-05 1.9685e-05 5.5158e-06
  1.3600  7352.94 1.5174 9.4092e-05 1.8841e-05 5.2624e-06
  1.3560  7374.63 1.5175 8.9651e-05 1.7886e-05 5.0827e-06
  1.3520  7396.45 1.5175 9.0299e-05 1.6951e-05 4.9911e-06
  1.3480  7418.40 1.5176 8.8060e-05 1.5852e-05 4.8240e-06
  1.3440  7440.48 1.5176 8.7830e-05 1.4830e-05 4.7244e-06
  1.3400  7462.69 1.5176 8.5388e-05 1.3902e-05 4.4160e-06
  1.3360  7485.03 1.5177 8.7023e-05 1.3079e-05 4.4435e-06
  1.3320  7507.51 1.5177 8.4698e-05 1.2275e-05 4.2951e-06
  1.3280  7530.12 1.5178 8.3180e-05 1.1647e-05 4.2143e-06
  1.3240  7552.87 1.5178 7.9799e-05 1.1098e-05 4.1405e-06
  1.3200  7575.76 1.5179 7.9823e-05 1.0540e-05 4.0293e-06
  1.3160  7598.78 1.5179 7.7778e-05 1.0129e-05 3.9927e-06
  1.3120  7621.95 1.5179 7.9170e-05 9.7589e-06 3.8913e-06
  1.3080  7645.26 1.5180 7.7902e-05 9.4822e-06 3.8276e-06
  1.3040  7668.71 1.5180 7.9196e-05 9.1982e-06 3.6687e-06
  1.3000  7692.31 1.5181 7.7230e-05 8.9751e-06 3.6411e-06
  1.2960  7716.05 1.5181 7.4750e-05 8.8482e-06 3.5374e-06
  1.2920  7739.94 1.5181 7.4097e-05 8.7109e-06 3.4576e-06
  1.2880  7763.98 1.5182 7.4104e-05 8.6558e-06 3.4547e-06
  1.2840  7788.16 1.5182 7.4112e-05 8.6167e-06 3.3653e-06
  1.2800  7812.50 1.5183 7.4072e-05 8.6170e-06 3.3235e-06
  1.2760  7836.99 1.5183 7.4116e-05 8.6369e-06 3.4225e-06
  1.2720  7861.64 1.5183 7.2354e-05 8.6934e-06 3.4100e-06
  1.2680  7886.44 1.5184 7.1215e-05 8.7357e-06 3.4315e-06
  1.2640  7911.39 1.5184 6.5554e-05 8.7410e-06 3.4364e-06
  1.2600  7936.51 1.5185 6.5590e-05 8.8349e-06 3.3999e-06
  1.2560  7961.78 1.5185 6.5549e-05 8.8681e-06 3.3288e-06
  1.2520  7987.22 1.5185 6.5587e-05 9.0022e-06 3.2666e-06
  1.2480  8012.82 1.5186 6.6708e-05 9.2456e-06 3.3100e-06
  1.2440  8038.58 1.5186 6.8464e-05 9.4983e-06 3.3022e-06
  1.2400  8064.52 1.5187 6.2921e-05 9.8882e-06 3.2826e-06
  1.2360  8090.62 1.5187 6.2951e-05 1.0322e-05 3.3472e-06
  1.2320  8116.88 1.5187 6.2968e-05 1.0579e-05 3.3681e-06
  1.2280  8143.32 1.5188 6.0242e-05 1.0692e-05 3.4601e-06
  1.2240  8169.94 1.5188 6.0611e-05 1.0687e-05 3.5156e-06
  1.2200  8196.72 1.5188 6.2872e-05 1.0732e-05 3.4815e-06
  1.2160  8223.68 1.5189 5.9207e-05 1.1000e-05 3.3882e-06
  1.2120  8250.83 1.5189 5.8981e-05 1.1429e-05 3.3214e-06
  1.2080  8278.15 1.5190 6.1183e-05 1.1826e-05 3.4944e-06
  1.2040  8305.65 1.5190 5.7924e-05 1.1868e-05 3.5822e-06
  1.2000  8333.33 1.5190 5.9945e-05 1.1708e-05 3.5580e-06
  1.1960  8361.20 1.5191 5.8557e-05 1.1578e-05 3.4947e-06
  1.1920  8389.26 1.5191 5.8968e-05 1.1461e-05 3.4296e-06
  1.1880  8417.51 1.5191 5.7380e-05 1.1338e-05 3.3620e-06
  1.1840  8445.95 1.5192 5.7896e-05 1.1276e-05 3.4798e-06
  1.1800  8474.58 1.5192 5.6181e-05 1.1035e-05 3.5314e-06
  1.1760  8503.40 1.5192 5.2915e-05 1.0767e-05 3.4471e-06
  1.1720  8532.42 1.5193 5.6930e-05 1.0116e-05 3.3886e-06
  1.1680  8561.64 1.5193 5.4580e-05 9.3563e-06 3.4713e-06
  1.1640  8591.07 1.5193 5.5057e-05 8.4501e-06 3.3605e-06
  1.1600  8620.69 1.5194 5.3554e-05 7.5912e-06 3.3675e-06
  1.1560  8650.52 1.5194 5.0051e-05 6.9507e-06 3.1928e-06
  1.1520  8680.56 1.5195 5.2367e-05 6.2783e-06 2.9739e-06
  1.1480  8710.80 1.5195 5.0204e-05 5.7818e-06 2.8930e-06
  1.1440  8741.26 1.5195 5.0427e-05 5.3884e-06 2.6981e-06
  1.1400  8771.93 1.5196 5.0563e-05 5.1257e-06 2.5982e-06
  1.1360  8802.82 1.5196 4.7372e-05 4.9304e-06 2.5106e-06
  1.1320  8833.92 1.5196 5.1350e-05 4.7729e-06 2.4609e-06
  1.1280  8865.25 1.5197 5.0210e-05 4.5975e-06 2.3255e-06
  1.1240  8896.80 1.5197 4.8479e-05 4.5103e-06 2.3070e-06
  1.1200  8928.57 1.5197 4.6918e-05 4.4413e-06 2.2705e-06
  1.1160  8960.57 1.5198 4.9484e-05 4.4219e-06 2.3179e-06
  1.1120  8992.81 1.5198 4.6751e-05 4.3104e-06 2.2688e-06
  1.1080  9025.27 1.5198 4.4679e-05 4.2274e-06 2.2520e-06
  1.1040  9057.97 1.5199 4.5429e-05 4.1583e-06 2.2546e-06
  1.1000  9090.91 1.5199 4.7952e-05 4.1553e-06 2.3010e-06
  1.0960  9124.09 1.5199 4.6875e-05 4.0041e-06 2.0908e-06
  1.0920  9157.51 1.5199 4.5756e-05 3.9696e-06 2.1547e-06
  1.0880  9191.18 1.5200 4.4650e-05 3.8853e-06 2.1425e-06
  1.0840  9225.09 1.5200 4.3512e-05 3.8445e-06 2.1576e-06
  1.0800  9259.26 1.5200 4.4267e-05 3.8225e-06 2.0808e-06
  1.0760  9293.68 1.5201 4.3125e-05 3.7633e-06 2.1036e-06
  1.0720  9328.36 1.5201 4.2005e-05 3.7514e-06 2.0813e-06
  1.0680  9363.30 1.5201 4.4659e-05 3.7055e-06 1.9801e-06
  1.0640  9398.50 1.5202 4.3566e-05 3.7184e-06 2.0051e-06
  1.0600  9433.96 1.5202 4.2456e-05 3.7735e-06 2.0565e-06
  1.0560  9469.70 1.5202 4.1350e-05 3.7348e-06 2.0209e-06
  1.0520  9505.70 1.5203 4.1764e-05 3.7240e-06 1.9542e-06
  1.0480  9541.99 1.5203 4.1713e-05 3.7237e-06 1.9318e-06
  1.0440  9578.54 1.5203 4.0592e-05 3.7218e-06 1.9113e-06
  1.0400  9615.38 1.5204 3.9471e-05 3.8159e-06 1.9291e-06
  1.0360  9652.51 1.5204 4.0705e-05 3.9292e-06 2.0007e-06
  1.0320  9689.92 1.5204 4.0230e-05 4.0281e-06 2.0333e-06
  1.0280  9727.63 1.5204 3.6258e-05 4.1800e-06 2.0638e-06
  1.0240  9765.62 1.5205 3.6737e-05 4.2817e-06 1.9615e-06
  1.0200  9803.92 1.5205 3.5563e-05 4.3818e-06 2.0005e-06
  1.0160  9842.52 1.5205 3.6905e-05 4.5379e-06 2.1134e-06
  1.0120  9881.42 1.5206 3.6258e-05 4.6532e-06 2.0736e-06
  1.0080  9920.63 1.5206 3.6203e-05 4.8128e-06 2.0484e-06
  1.0040  9960.16 1.5206 3.6196e-05 4.9740e-06 2.0220e-06
  1.0000 10000.00 1.5206 3.5594e-05 5.1718e-06 2.1370e-06
  0.9960 10040.16 1.5207 3.4375e-05 5.2134e-06 2.1899e-06
  0.9920 10080.64 1.5207 3.5118e-05 5.1349e-06 2.2433e-06
  0.9880 10121.46 1.5207 3.4636e-05 5.0175e-06 2.2535e-06
  0.9840 10162.60 1.5208 3.1582e-05 4.9119e-06 2.2936e-06
  0.9800 10204.08 1.5208 3.2988e-05 4.6593e-06 2.2567e-06
  0.9760 10245.90 1.5208 3.3790e-05 4.4602e-06 2.2021e-06
  0.9720 10288.07 1.5208 3.3475e-05 4.2897e-06 2.1302e-06
  0.9680 10330.58 1.5209 3.0664e-05 4.1007e-06 2.0733e-06
  0.9640 10373.44 1.5209 3.2383e-05 3.9252e-06 2.0203e-06
  0.9600 10416.67 1.5209 3.4131e-05 3.8307e-06 1.9952e-06
  0.9560 10460.25 1.5209 2.8843e-05 3.6239e-06 1.9280e-06
  0.9520 10504.20 1.5210 3.1067e-05 3.5361e-06 1.9035e-06
  0.9480 10548.52 1.5210 3.1885e-05 3.4888e-06 1.9213e-06
  0.9440 10593.22 1.5210 2.9055e-05 3.3815e-06 1.8755e-06
  0.9400 10638.30 1.5211 2.9954e-05 3.2703e-06 1.8329e-06
  0.9360 10683.76 1.5211 2.7776e-05 3.2586e-06 1.8126e-06
  0.9320 10729.61 1.5211 2.9582e-05 3.2297e-06 1.7562e-06
  0.9280 10775.86 1.5211 3.0771e-05 3.2158e-06 1.7475e-06
  0.9240 10822.51 1.5212 2.6801e-05 3.1981e-06 1.7517e-06
  0.9200 10869.57 1.5212 3.0097e-05 3.1680e-06 1.7641e-06
  0.9160 10917.03 1.5212 2.7805e-05 3.1613e-06 1.7331e-06
  0.9120 10964.91 1.5212 2.9588e-05 3.1409e-06 1.6852e-06
  0.9080 11013.22 1.5213 2.5204e-05 3.1239e-06 1.6810e-06
  0.9040 11061.95 1.5213 2.6735e-05 3.0986e-06 1.6798e-06
  0.9000 11111.11 1.5213 2.4499e-05 3.0559e-06 1.6473e-06
  0.8960 11160.71 1.5213 2.7792e-05 2.9732e-06 1.5982e-06
  0.8920 11210.76 1.5214 2.5583e-05 2.9363e-06 1.6050e-06
  0.8880 11261.26 1.5214 2.8874e-05 2.9159e-06 1.6013e-06
  0.8840 11312.22 1.5214 2.6664e-05 2.9153e-06 1.5854e-06
  0.8800 11363.64 1.5214 2.6431e-05 2.8988e-06 1.5182e-06
  0.8760 11415.53 1.5215 2.7878e-05 2.8839e-06 1.4616e-06
  0.8720 11467.89 1.5215 2.5623e-05 2.8492e-06 1.4252e-06
  0.8680 11520.74 1.5215 2.8945e-05 2.8519e-06 1.4564e-06
  0.8640 11574.07 1.5215 2.6752e-05 2.8393e-06 1.4490e-06
  0.8600 11627.91 1.5216 2.6291e-05 2.8108e-06 1.4512e-06
  0.8560 11682.24 1.5216 2.7848e-05 2.8271e-06 1.4624e-06
  0.8520 11737.09 1.5216 2.5695e-05 2.7715e-06 1.4951e-06
  0.8480 11792.45 1.5216 2.5162e-05 2.7200e-06 1.5315e-06
  0.8440 11848.34 1.5216 2.6635e-05 2.6978e-06 1.5440e-06
  0.8400 11904.76 1.5217 2.4583e-05 2.6751e-06 1.5334e-06
  0.8360 11961.72 1.5217 2.2379e-05 2.6295e-06 1.5046e-06
  0.8320 12019.23 1.5217 2.1703e-05 2.6322e-06 1.4790e-06
  0.8280 12077.29 1.5217 2.3381e-05 2.6216e-06 1.4731e-06
  0.8240 12135.92 1.5218 2.1263e-05 2.6161e-06 1.5111e-06
  0.8200 12195.12 1.5218 1.9153e-05 2.6337e-06 1.5232e-06
  0.8160 12254.90 1.5218 2.0852e-05 2.5838e-06 1.4525e-06
  0.8120 12315.27 1.5218 2.0743e-05 2.5828e-06 1.4360e-06
  0.8080 12376.24 1.5219 2.3476e-05 2.5982e-06 1.4488e-06
  0.8040 12437.81 1.5219 2.1246e-05 2.6058e-06 1.4322e-06
  0.8000 12500.00 1.5219 2.0576e-05 2.5616e-06 1.4676e-06
  0.7990 12515.64 1.5219 1.7237e-05 2.5559e-06 1.5221e-06
  0.7980 12531.33 1.5219 1.8151e-05 2.5246e-06 1.4585e-06
  0.7970 12547.05 1.5219 2.0271e-05 2.4958e-06 1.3567e-06
  0.7960 12562.81 1.5219 1.8451e-05 2.5468e-06 1.4374e-06
  0.7950 12578.62 1.5219 1.9250e-05 2.5969e-06 1.5087e-06
  0.7940 12594.46 1.5219 1.8431e-05 2.5706e-06 1.4490e-06
  0.7930 12610.34 1.5219 2.0261e-05 2.5917e-06 1.5062e-06
  0.7920 12626.26 1.5219 1.9531e-05 2.5796e-06 1.4730e-06
  0.7910 12642.22 1.5219 2.1286e-05 2.6161e-06 1.5672e-06
  0.7900 12658.23 1.5219 2.0596e-05 2.5622e-06 1.4725e-06
  0.7890 12674.27 1.5220 2.1275e-05 2.5028e-06 1.3923e-06
  0.7880 12690.36 1.5220 1.9521e-05 2.5368e-06 1.4547e-06
  0.7870 12706.48 1.5220 2.0199e-05 2.5979e-06 1.5689e-06
  0.7860 12722.65 1.5220 1.8370e-05 2.5281e-06 1.4569e-06
  0.7850 12738.85 1.5220 1.9151e-05 2.5395e-06 1.5109e-06
  0.7840 12755.10 1.5220 1.7265e-05 2.5242e-06 1.4583e-06
  0.7830 12771.39 1.5220 1.9555e-05 2.5906e-06 1.6030e-06
  0.7820 12787.72 1.5220 2.0293e-05 2.5285e-06 1.5118e-06
  0.7810 12804.10 1.5220 1.8472e-05 2.5008e-06 1.4608e-06
  0.7800 12820.51 1.5220 1.9267e-05 2.5389e-06 1.5431e-06
  0.7790 12836.97 1.5220 1.8442e-05 2.5494e-06 1.5349e-06
  0.7780 12853.47 1.5220 2.0269e-05 2.5646e-06 1.5584e-06
  0.7770 12870.01 1.5220 1.9537e-05 2.5467e-06 1.5208e-06
  0.7760 12886.60 1.5220 2.1289e-05 2.5172e-06 1.4521e-06
  0.7750 12903.23 1.5220 2.0598e-05 2.5557e-06 1.5054e-06
  0.7740 12919.90 1.5220 2.1271e-05 2.5148e-06 1.4453e-06
  0.7730 12936.61 1.5220 1.9509e-05 2.5005e-06 1.4255e-06
  0.7720 12953.37 1.5220 2.0232e-05 2.5354e-06 1.5075e-06
  0.7710 12970.17 1.5220 1.8389e-05 2.5567e-06 1.5315e-06
  0.7700 12987.01 1.5221 1.9120e-05 2.5499e-06 1.5377e-06
  0.7690 13003.90 1.5221 1.7232e-05 2.5502e-06 1.5327e-06
  0.7680 13020.83 1.5221 1.8113e-05 2.5215e-06 1.4670e-06
  0.7670 13037.81 1.5221 1.6107e-05 2.5697e-06 1.5525e-06
  0.7660 13054.83 1.5221 1.7081e-05 2.5483e-06 1.5182e-06
  0.7650 13071.90 1.5221 1.4974e-05 2.5126e-06 1.4536e-06
  0.7640 13089.00 1.5221 1.7086e-05 2.5261e-06 1.5166e-06
  0.7630 13106.16 1.5221 1.6127e-05 2.5302e-06 1.5097e-06
  0.7620 13123.36 1.5221 1.8139e-05 2.5145e-06 1.4848e-06
  0.7610 13140.61 1.5221 1.7269e-05 2.5084e-06 1.4855e-06
  0.7600 13157.89 1.5221 1.9187e-05 2.4444e-06 1.3773e-06
  0.7590 13175.23 1.5221 1.7290e-05 2.4864e-06 1.4880e-06
  0.7580 13192.61 1.5221 1.8169e-05 2.4661e-06 1.4585e-06
  0.7570 13210.04 1.5221 1.6167e-05 2.4345e-06 1.4306e-06
  0.7560 13227.51 1.5221 1.8399e-05 2.4535e-06 1.4917e-06
  0.7550 13245.03 1.5221 1.5016e-05 2.4383e-06 1.4617e-06
  0.7540 13262.60 1.5221 1.8383e-05 2.4594e-06 1.5171e-06
  0.7530 13280.21 1.5221 1.6135e-05 2.4362e-06 1.4883e-06
  0.7520 13297.87 1.5221 1.9458e-05 2.3621e-06 1.3816e-06
  0.7510 13315.58 1.5222 1.7189e-05 2.3795e-06 1.4372e-06
  0.7500 13333.33 1.5222 2.0513e-05 2.4306e-06 1.5258e-06
  0.7490 13351.13 1.5222 1.7178e-05 2.3497e-06 1.4177e-06
  0.7480 13368.98 1.5222 1.9474e-05 2.3682e-06 1.4758e-06
  0.7470 13386.88 1.5222 1.6132e-05 2.3561e-06 1.4493e-06
  0.7460 13404.83 1.5222 1.8402e-05 2.3587e-06 1.4828e-06
  0.7450 13422.82 1.5222 1.5054e-05 2.3126e-06 1.4340e-06
  0.7440 13440.86 1.5222 1.7890e-05 2.2781e-06 1.3703e-06
  0.7430 13458.95 1.5222 1.5175e-05 2.2885e-06 1.3940e-06
  0.7420 13477.09 1.5222 1.8063e-05 2.3321e-06 1.4712e-06
  0.7410 13495.28 1.5222 1.5445e-05 2.2927e-06 1.3822e-06
  0.7400 13513.51 1.5222 1.8351e-05 2.3250e-06 1.4296e-06
  0.7390 13531.80 1.5222 1.5436e-05 2.2851e-06 1.3797e-06
  0.7380 13550.14 1.5222 1.8029e-05 2.2843e-06 1.4131e-06
  0.7370 13568.52 1.5222 1.5121e-05 2.2542e-06 1.3581e-06
  0.7360 13586.96 1.5222 1.7814e-05 2.2318e-06 1.3331e-06
  0.7350 13605.44 1.5222 1.4955e-05 2.2278e-06 1.3661e-06
  0.7340 13623.98 1.5222 1.7767e-05 2.2495e-06 1.3863e-06
  0.7330 13642.57 1.5222 1.5068e-05 2.2678e-06 1.4070e-06
  0.7320 13661.20 1.5222 1.6757e-05 2.2549e-06 1.3699e-06
  0.7310 13679.89 1.5223 1.5350e-05 2.2454e-06 1.3376e-06
  0.7300 13698.63 1.5223 1.7088e-05 2.2854e-06 1.4069e-06
  0.7290 13717.42 1.5223 1.5378e-05 2.2692e-06 1.3861e-06
  0.7280 13736.26 1.5223 1.6797e-05 2.2179e-06 1.3094e-06
  0.7270 13755.16 1.5223 1.5119e-05 2.2568e-06 1.3943e-06
  0.7260 13774.10 1.5223 1.6627e-05 2.2621e-06 1.4225e-06
  0.7250 13793.10 1.5223 1.5008e-05 2.2427e-06 1.4285e-06
  0.7240 13812.16 1.5223 1.7116e-05 2.2385e-06 1.3927e-06
  0.7230 13831.26 1.5223 1.6153e-05 2.2176e-06 1.3238e-06
  0.7220 13850.42 1.5223 1.8155e-05 2.2569e-06 1.3943e-06
  0.7210 13869.62 1.5223 1.7278e-05 2.2467e-06 1.3290e-06
  0.7200 13888.89 1.5223 1.9187e-05 2.2287e-06 1.2904e-06
  0.7190 13908.21 1.5223 1.7291e-05 2.2373e-06 1.3241e-06
  0.7180 13927.58 1.5223 1.8171e-05 2.2467e-06 1.3834e-06
  0.7170 13947.00 1.5223 1.6170e-05 2.2313e-06 1.3900e-06
  0.7160 13966.48 1.5223 1.2831e-05 2.2248e-06 1.3954e-06
  0.7150 13986.01 1.5223 1.4973e-05 2.1457e-06 1.2703e-06
  0.7140 14005.60 1.5223 1.2784e-05 2.2060e-06 1.3686e-06
  0.7130 14025.25 1.5223 1.6110e-05 2.2219e-06 1.3828e-06
  0.7120 14044.94 1.5223 1.3896e-05 2.1715e-06 1.2954e-06
  0.7110 14064.70 1.5224 1.7247e-05 2.1905e-06 1.2840e-06
  0.7100 14084.51 1.5224 1.5010e-05 2.2358e-06 1.3548e-06
  0.7090 14104.37 1.5224 1.7276e-05 2.2206e-06 1.3594e-06
  0.7080 14124.29 1.5224 1.3923e-05 2.2114e-06 1.3378e-06
  0.7070 14144.27 1.5224 1.6131e-05 2.1470e-06 1.2351e-06
  0.7060 14164.31 1.5224 1.2780e-05 2.1836e-06 1.3175e-06
  0.7050 14184.40 1.5224 1.4125e-05 2.1950e-06 1.3731e-06
  0.7040 14204.55 1.5224 1.2795e-05 2.1510e-06 1.2885e-06
  0.7030 14224.75 1.5224 1.5125e-05 2.2164e-06 1.3826e-06
  0.7020 14245.01 1.5224 1.3932e-05 2.1815e-06 1.3315e-06
  0.7010 14265.33 1.5224 1.1749e-05 2.1939e-06 1.3435e-06
  0.7000 14285.71 1.5224 1.5051e-05 2.1623e-06 1.2822e-06
  0.6990 14306.15 1.5224 1.2837e-05 2.1893e-06 1.3376e-06
  0.6980 14326.65 1.5224 1.6107e-05 2.2055e-06 1.3645e-06
  0.6970 14347.20 1.5224 1.3864e-05 2.1583e-06 1.2918e-06
  0.6960 14367.82 1.5224 1.7167e-05 2.1385e-06 1.2946e-06
  0.6950 14388.49 1.5224 1.4877e-05 2.1161e-06 1.2384e-06
  0.6940 14409.22 1.5224 1.7168e-05 2.1252e-06 1.2631e-06
  0.6930 14430.01 1.5224 1.3870e-05 2.1798e-06 1.3600e-06
  0.6920 14450.87 1.5224 1.6131e-05 2.1368e-06 1.2839e-06
  0.6910 14471.78 1.5224 1.2832e-05 2.1975e-06 1.3847e-06
  0.6900 14492.75 1.5224 1.4194e-05 2.1594e-06 1.3030e-06
  0.6890 14513.79 1.5225 1.2853e-05 2.1541e-06 1.3001e-06
  0.6880 14534.88 1.5225 1.0697e-05 2.1496e-06 1.2972e-06
  0.6870 14556.04 1.5225 1.3970e-05 2.1262e-06 1.2678e-06
  0.6860 14577.26 1.5225 1.1776e-05 2.1581e-06 1.3131e-06
  0.6850 14598.54 1.5225 1.5069e-05 2.1612e-06 1.3088e-06
  0.6840 14619.88 1.5225 1.2864e-05 2.1477e-06 1.2831e-06
  0.6830 14641.29 1.5225 1.6190e-05 2.1067e-06 1.2278e-06
  0.6820 14662.76 1.5225 1.3957e-05 2.1121e-06 1.2236e-06
  0.6810 14684.29 1.5225 1.7290e-05 2.1239e-06 1.2477e-06
  0.6800 14705.88 1.5225 1.5033e-05 2.1621e-06 1.3213e-06
  0.6790 14727.54 1.5225 1.6086e-05 2.1293e-06 1.2679e-06
  0.6780 14749.26 1.5225 1.3916e-05 2.1520e-06 1.2831e-06
  0.6770 14771.05 1.5225 1.0646e-05 2.1784e-06 1.3274e-06
  0.6760 14792.90 1.5225 1.2791e-05 2.1466e-06 1.2690e-06
  0.6750 14814.82 1.5225 9.5516e-06 2.1490e-06 1.2682e-06
  0.6740 14836.79 1.5225 1.2779e-05 2.1099e-06 1.2217e-06
  0.6730 14858.84 1.5225 1.0622e-05 2.1372e-06 1.2707e-06
  0.6720 14880.95 1.5225 1.3890e-05 2.1607e-06 1.3204e-06
  0.6710 14903.13 1.5225 1.1695e-05 2.0999e-06 1.2245e-06
  0.6700 14925.37 1.5225 1.4130e-05 2.1065e-06 1.2725e-06
  0.6690 14947.68 1.5225 1.2803e-05 2.1174e-06 1.2719e-06
  0.6680 14970.06 1.5225 1.0658e-05 2.1369e-06 1.3188e-06
  0.6670 14992.50 1.5226 1.3940e-05 2.1263e-06 1.2932e-06
  0.6660 15015.01 1.5226 1.1758e-05 2.0681e-06 1.1897e-06
  0.6650 15037.59 1.5226 1.5060e-05 2.1082e-06 1.2612e-06
  0.6640 15060.24 1.5226 1.2864e-05 2.1220e-06 1.2868e-06
  0.6630 15082.96 1.5226 1.6199e-05 2.1033e-06 1.2607e-06
  0.6620 15105.74 1.5226 1.3975e-05 2.1058e-06 1.2886e-06
  0.6610 15128.59 1.5226 1.1778e-05 2.0878e-06 1.2625e-06
  0.6600 15151.51 1.5226 1.5068e-05 2.0871e-06 1.2620e-06
  0.6590 15174.51 1.5226 1.2348e-05 2.1162e-06 1.3038e-06
  0.6580 15197.57 1.5226 1.5113e-05 2.0499e-06 1.1775e-06
  0.6570 15220.70 1.5226 1.2492e-05 2.0643e-06 1.2219e-06
  0.6560 15243.90 1.5226 1.5318e-05 2.0928e-06 1.2635e-06
  0.6550 15267.18 1.5226 1.2845e-05 2.0894e-06 1.2348e-06
  0.6540 15290.52 1.5226 1.0092e-05 2.0601e-06 1.1863e-06
  0.6530 15313.94 1.5226 1.2500e-05 2.0321e-06 1.1380e-06
  0.6520 15337.42 1.5226 9.7444e-06 2.0667e-06 1.2101e-06
  0.6510 15360.98 1.5226 1.2327e-05 2.0953e-06 1.2789e-06
  0.6500 15384.62 1.5226 9.6296e-06 2.0667e-06 1.2303e-06
  0.6490 15408.32 1.5226 1.2855e-05 2.0908e-06 1.2738e-06
  0.6480 15432.10 1.5226 1.0690e-05 2.0888e-06 1.2749e-06
  0.6470 15455.95 1.5226 8.5940e-06 2.0762e-06 1.2399e-06
  0.6460 15479.88 1.5226 1.1750e-05 2.0927e-06 1.2608e-06
  0.6450 15503.88 1.5226 9.5982e-06 2.0653e-06 1.2055e-06
  0.6440 15527.95 1.5227 1.2833e-05 2.0831e-06 1.2555e-06
  0.6430 15552.10 1.5227 1.0671e-05 2.0850e-06 1.2514e-06
  0.6420 15576.32 1.5227 1.3937e-05 2.0618e-06 1.2006e-06
  0.6410 15600.62 1.5227 1.1736e-05 2.0601e-06 1.1974e-06
  0.6400 15625.00 1.5227 9.5873e-06 2.0311e-06 1.1484e-06
  0.6390 15649.45 1.5227 1.2824e-05 2.0552e-06 1.1936e-06
  0.6380 15673.98 1.5227 1.0664e-05 2.0793e-06 1.2386e-06
  0.6370 15698.59 1.5227 1.3883e-05 2.0405e-06 1.1942e-06
  0.6360 15723.27 1.5227 1.1683e-05 2.0741e-06 1.2654e-06
  0.6350 15748.03 1.5227 1.4951e-05 2.0835e-06 1.2901e-06
  0.6340 15772.87 1.5227 1.2770e-05 2.0587e-06 1.2383e-06
  0.6330 15797.79 1.5227 1.0624e-05 2.0532e-06 1.2391e-06
  0.6320 15822.78 1.5227 1.3904e-05 1.9931e-06 1.1499e-06
  0.6310 15847.86 1.5227 1.1720e-05 2.0153e-06 1.2191e-06
  0.6300 15873.02 1.5227 1.5019e-05 2.0460e-06 1.2674e-06
  0.6290 15898.25 1.5227 1.2823e-05 2.0165e-06 1.2124e-06
  0.6280 15923.57 1.5227 1.0664e-05 2.0224e-06 1.2096e-06
  0.6270 15948.96 1.5227 1.3932e-05 2.0025e-06 1.1807e-06
  0.6260 15974.44 1.5227 1.1734e-05 2.0336e-06 1.2186e-06
  0.6250 16000.00 1.5227 1.5020e-05 2.0338e-06 1.2126e-06
  0.6240 16025.64 1.5227 1.2308e-05 1.9960e-06 1.1686e-06
  0.6230 16051.36 1.5227 1.1703e-05 2.0218e-06 1.2161e-06
  0.6220 16077.17 1.5227 1.2529e-05 2.0361e-06 1.2621e-06
  0.6210 16103.06 1.5227 1.0142e-05 2.0166e-06 1.2081e-06
  0.6200 16129.03 1.5228 1.2925e-05 2.0159e-06 1.2060e-06
  0.6190 16155.09 1.5228 1.0917e-05 1.9963e-06 1.1809e-06
  0.6180 16181.23 1.5228 1.0658e-05 1.9988e-06 1.2061e-06
  0.6170 16207.46 1.5228 1.1869e-05 1.9862e-06 1.1792e-06
  0.6160 16233.77 1.5228 9.9011e-06 1.9758e-06 1.1566e-06
  0.6150 16260.16 1.5228 1.2853e-05 1.9619e-06 1.1350e-06
  0.6140 16286.64 1.5228 1.0858e-05 1.9399e-06 1.1097e-06
  0.6130 16313.21 1.5228 1.0605e-05 1.9805e-06 1.1739e-06
  0.6120 16339.87 1.5228 1.1875e-05 1.9654e-06 1.1467e-06
  0.6110 16366.61 1.5228 9.9205e-06 1.9568e-06 1.1455e-06
  0.6100 16393.44 1.5228 1.2881e-05 1.9593e-06 1.1645e-06
  0.6090 16420.36 1.5228 1.0113e-05 1.9701e-06 1.1830e-06
  0.6080 16447.37 1.5228 9.0156e-06 1.9393e-06 1.1059e-06
  0.6070 16474.46 1.5228 9.7392e-06 1.9466e-06 1.0972e-06
  0.6060 16501.65 1.5228 7.1411e-06 1.9299e-06 1.0679e-06
  0.6050 16528.93 1.5228 9.5944e-06 1.9247e-06 1.0632e-06
  0.6040 16556.29 1.5228 7.5817e-06 1.9705e-06 1.1571e-06
  0.6030 16583.75 1.5228 6.9755e-06 1.9566e-06 1.1333e-06
  0.6020 16611.30 1.5228 8.5927e-06 1.9354e-06 1.1124e-06
  0.6010 16638.94 1.5228 6.6477e-06 1.9030e-06 1.0676e-06
  0.6000 16666.67 1.5228 9.6126e-06 1.9245e-06 1.1123e-06
  0.5990 16694.49 1.5228 7.5955e-06 1.9635e-06 1.1704e-06
  0.5980 16722.41 1.5228 6.9865e-06 1.9252e-06 1.1004e-06
  0.5970 16750.42 1.5228 8.5977e-06 1.9546e-06 1.1613e-06
  0.5960 16778.52 1.5229 6.6480e-06 1.9791e-06 1.2053e-06
  0.5950 16806.72 1.5229 9.5562e-06 1.9535e-06 1.1543e-06
  0.5940 16835.02 1.5229 7.5426e-06 1.9539e-06 1.1217e-06
  0.5930 16863.41 1.5229 6.9282e-06 1.9359e-06 1.0952e-06
  0.5920 16891.89 1.5229 8.5533e-06 1.9515e-06 1.1407e-06
  0.5910 16920.47 1.5229 6.6143e-06 1.9860e-06 1.1795e-06
  0.5900 16949.15 1.5229 9.5790e-06 1.9525e-06 1.1309e-06
  0.5890 16977.93 1.5229 8.0973e-06 1.9420e-06 1.1036e-06
  0.5880 17006.80 1.5229 6.8238e-06 1.9659e-06 1.1475e-06
  0.5870 17035.78 1.5229 1.0417e-05 1.9919e-06 1.1906e-06
  0.5860 17064.85 1.5229 9.1654e-06 2.0063e-06 1.2098e-06
  0.5850 17094.02 1.5229 9.5860e-06 1.9874e-06 1.1575e-06
  0.5840 17123.29 1.5229 1.0916e-05 2.0322e-06 1.2480e-06
  0.5830 17152.66 1.5229 9.0393e-06 2.0350e-06 1.2422e-06
  0.5820 17182.13 1.5229 1.1909e-05 1.9856e-06 1.1449e-06
  0.5810 17211.71 1.5229 9.9399e-06 1.9973e-06 1.1638e-06
  0.5800 17241.38 1.5229 9.5629e-06 1.9635e-06 1.1169e-06
  0.5790 17271.16 1.5229 1.1126e-05 2.0042e-06 1.1813e-06
  0.5780 17301.04 1.5229 9.3915e-06 2.0300e-06 1.2236e-06
  0.5770 17331.02 1.5229 9.3922e-06 2.0013e-06 1.1759e-06
  0.5760 17361.11 1.5229 1.1204e-05 1.9866e-06 1.1555e-06
  0.5750 17391.30 1.5229 9.5664e-06 1.9581e-06 1.1085e-06
  0.5740 17421.60 1.5229 1.2810e-05 1.9790e-06 1.1231e-06
  0.5730 17452.01 1.5229 1.0658e-05 2.0041e-06 1.1685e-06
  0.5720 17482.52 1.5229 1.0428e-05 1.9680e-06 1.1005e-06
  0.5710 17513.13 1.5229 1.1690e-05 1.9691e-06 1.1241e-06
  0.5700 17543.86 1.5229 9.5451e-06 1.9791e-06 1.1151e-06
  0.5690 17574.69 1.5230 9.2180e-06 1.9382e-06 1.0499e-06
  0.5680 17605.63 1.5230 1.0632e-05 1.9286e-06 1.0220e-06
  0.5670 17636.69 1.5230 8.5519e-06 1.8904e-06 9.6164e-07
  0.5660 17667.85 1.5230 1.1718e-05 1.9084e-06 9.7178e-07
  0.5650 17699.12 1.5230 9.5796e-06 1.9258e-06 1.0108e-06
  0.5640 17730.50 1.5230 9.2578e-06 1.8979e-06 9.4686e-07
  0.5630 17761.99 1.5230 1.0659e-05 1.9075e-06 9.8652e-07
  0.5620 17793.60 1.5230 8.5687e-06 1.8889e-06 9.4166e-07
  0.5610 17825.31 1.5230 8.1003e-06 1.8854e-06 9.4104e-07
  0.5600 17857.14 1.5230 9.5780e-06 1.9828e-06 1.0643e-06
  0.5590 17889.09 1.5230 7.5669e-06 2.0055e-06 1.1050e-06
  0.5580 17921.15 1.5230 6.9558e-06 1.9774e-06 1.0642e-06
  0.5570 17953.32 1.5230 8.5731e-06 1.9852e-06 1.0560e-06
  0.5560 17985.61 1.5230 6.6277e-06 1.9961e-06 1.0511e-06
  0.5550 18018.02 1.5230 9.5862e-06 2.0275e-06 1.1148e-06
  0.5540 18050.54 1.5230 7.5755e-06 2.0136e-06 1.0903e-06
  0.5530 18083.18 1.5230 6.9670e-06 2.0284e-06 1.1064e-06
  0.5520 18115.94 1.5230 8.5840e-06 2.0506e-06 1.1420e-06
  0.5510 18148.82 1.5230 6.6381e-06 2.0435e-06 1.1136e-06
  0.5500 18181.82 1.5230 5.7941e-06 2.0473e-06 1.1075e-06
  0.5490 18214.94 1.5230 8.1134e-06 2.0563e-06 1.1265e-06
  0.5480 18248.18 1.5230 6.8372e-06 2.0597e-06 1.1204e-06
  0.5470 18281.54 1.5230 6.8425e-06 2.0865e-06 1.1811e-06
  0.5460 18315.02 1.5230 9.1292e-06 2.0754e-06 1.1549e-06
  0.5450 18348.62 1.5230 8.1367e-06 2.0534e-06 1.1069e-06
  0.5440 18382.35 1.5230 7.6564e-06 2.0773e-06 1.1439e-06
  0.5430 18416.21 1.5230 9.3976e-06 2.0878e-06 1.1321e-06
  0.5420 18450.19 1.5230 7.7503e-06 2.0921e-06 1.1240e-06
  0.5410 18484.29 1.5231 1.1232e-05 2.1073e-06 1.1663e-06
  0.5400 18518.52 1.5231 9.6094e-06 2.1064e-06 1.1326e-06
  0.5390 18552.88 1.5231 9.2985e-06 2.1234e-06 1.1754e-06
  0.5380 18587.36 1.5231 1.0696e-05 2.1065e-06 1.1534e-06
  0.5370 18621.97 1.5231 8.6041e-06 2.1127e-06 1.1742e-06
  0.5360 18656.72 1.5231 8.1395e-06 2.1116e-06 1.1424e-06
  0.5350 18691.59 1.5231 9.6122e-06 2.1455e-06 1.2025e-06
  0.5340 18726.59 1.5231 7.5937e-06 2.1674e-06 1.2395e-06
  0.5330 18761.73 1.5231 6.9819e-06 2.1418e-06 1.1925e-06
  0.5320 18796.99 1.5231 8.5907e-06 2.1246e-06 1.1164e-06
  0.5310 18832.39 1.5231 6.6382e-06 2.1477e-06 1.1765e-06
  0.5300 18867.93 1.5231 5.7862e-06 2.1510e-06 1.1684e-06
  0.5290 18903.59 1.5231 7.5822e-06 2.1232e-06 1.1310e-06
  0.5280 18939.39 1.5231 5.7798e-06 2.1380e-06 1.1459e-06
  0.5270 18975.33 1.5231 4.6680e-06 2.1424e-06 1.1342e-06
  0.5260 19011.41 1.5231 6.6471e-06 2.1482e-06 1.1553e-06
  0.5250 19047.62 1.5231 5.0210e-06 2.1230e-06 1.1166e-06
  0.5240 19083.97 1.5231 4.6450e-06 2.1151e-06 1.0871e-06
  0.5230 19120.46 1.5231 7.5798e-06 2.1465e-06 1.1109e-06
  0.5220 19157.09 1.5231 6.6348e-06 2.1430e-06 1.0831e-06
  0.5210 19193.86 1.5231 6.9548e-06 2.1543e-06 1.0931e-06
  0.5200 19230.77 1.5231 9.5420e-06 2.1713e-06 1.1037e-06
  0.5190 19267.82 1.5231 7.5362e-06 2.1615e-06 1.0776e-06
  0.5180 19305.02 1.5231 6.9198e-06 2.1783e-06 1.1189e-06
  0.5170 19342.36 1.5231 8.5445e-06 2.1705e-06 1.1207e-06
  0.5160 19379.85 1.5231 6.6040e-06 2.1578e-06 1.0972e-06
  0.5150 19417.48 1.5231 5.7525e-06 2.1481e-06 1.0713e-06
  0.5140 19455.25 1.5231 7.5573e-06 2.1796e-06 1.0690e-06
  0.5130 19493.18 1.5232 5.7618e-06 2.2077e-06 1.0992e-06
  0.5120 19531.25 1.5232 4.6464e-06 2.2043e-06 1.0673e-06
  0.5110 19569.47 1.5232 6.6326e-06 2.2086e-06 1.0290e-06
  0.5100 19607.84 1.5232 5.0123e-06 2.2474e-06 1.0811e-06
  0.5090 19646.37 1.5232 4.6380e-06 2.2332e-06 1.0590e-06
  0.5080 19685.04 1.5232 7.5742e-06 2.2242e-06 1.0626e-06
  0.5070 19723.87 1.5232 6.6296e-06 2.2470e-06 1.0976e-06
  0.5060 19762.85 1.5232 6.9481e-06 2.2603e-06 1.1062e-06
  0.5050 19801.98 1.5232 9.5878e-06 2.2618e-06 1.1299e-06
  0.5040 19841.27 1.5232 7.5763e-06 2.2584e-06 1.0986e-06
  0.5030 19880.71 1.5232 6.9659e-06 2.2596e-06 1.0683e-06
  0.5020 19920.32 1.5232 8.5802e-06 2.2937e-06 1.1184e-06
  0.5010 19960.08 1.5232 6.6318e-06 2.2856e-06 1.0619e-06
  0.5000 20000.00 1.5232 5.7813e-06 2.2848e-06 1.0599e-06
  0.4990 20040.08 1.5232 7.5755e-06 2.3071e-06 1.0933e-06
  0.4980 20080.32 1.5232 5.7717e-06 2.2865e-06 1.0516e-06
  0.4970 20120.72 1.5232 4.6523e-06 2.3243e-06 1.1307e-06
  0.4960 20161.29 1.5232 6.5739e-06 2.2941e-06 1.0935e-06
  0.4950 20202.02 1.5232 4.9469e-06 2.2767e-06 1.0746e-06
  0.4940 20242.91 1.5232 4.5779e-06 2.3241e-06 1.1415e-06
  0.4930 20283.98 1.5232 7.5352e-06 2.3161e-06 1.0913e-06
  0.4920 20325.20 1.5232 6.6041e-06 2.3290e-06 1.1063e-06
  0.4910 20366.60 1.5232 6.9294e-06 2.3101e-06 1.0679e-06
  0.4900 20408.16 1.5232 5.7725e-06 2.3126e-06 1.0380e-06
  0.4890 20449.90 1.5232 7.5740e-06 2.3370e-06 1.0730e-06
  0.4880 20491.80 1.5232 6.9703e-06 2.3215e-06 1.0285e-06
  0.4870 20533.88 1.5232 4.6645e-06 2.3227e-06 1.0331e-06
  0.4860 20576.13 1.5232 6.6458e-06 2.3417e-06 1.0382e-06
  0.4850 20618.56 1.5232 5.8056e-06 2.3770e-06 1.0606e-06
  0.4840 20661.16 1.5232 4.1519e-06 2.3852e-06 1.0807e-06
  0.4830 20703.93 1.5233 6.8337e-06 2.3809e-06 1.0532e-06
  0.4820 20746.89 1.5233 5.9040e-06 2.3636e-06 1.0155e-06
  0.4810 20790.02 1.5233 5.6685e-06 2.3695e-06 1.0076e-06
  0.4800 20833.33 1.5233 8.1636e-06 2.3680e-06 9.7749e-07
  0.4790 20876.83 1.5233 6.6228e-06 2.3881e-06 1.0135e-06
  0.4780 20920.50 1.5233 5.7740e-06 2.3883e-06 1.0119e-06
  0.4770 20964.36 1.5233 3.8627e-06 2.3913e-06 9.8068e-07
  0.4760 21008.40 1.5233 6.2457e-06 2.4215e-06 1.0352e-06
  0.4750 21052.63 1.5233 5.7958e-06 2.4144e-06 1.0116e-06
  0.4740 21097.05 1.5233 3.5077e-06 2.3998e-06 9.9588e-07
  0.4730 21141.65 1.5233 5.7870e-06 2.4185e-06 9.9982e-07
  0.4720 21186.44 1.5233 4.6746e-06 2.4236e-06 9.9525e-07
  0.4710 21231.42 1.5233 2.3526e-06 2.4616e-06 1.0677e-06
  0.4700 21276.60 1.5233 5.0189e-06 2.4445e-06 1.0552e-06
  0.4690 21321.96 1.5233 4.4471e-06 2.4510e-06 1.0443e-06
  0.4680 21367.52 1.5233 3.4860e-06 2.4714e-06 1.0773e-06
  0.4670 21413.28 1.5233 6.5704e-06 2.4652e-06 1.0569e-06
  0.4660 21459.23 1.5233 5.6966e-06 2.4442e-06 1.0203e-06
  0.4650 21505.38 1.5233 5.6940e-06 2.4627e-06 1.0244e-06
  0.4640 21551.72 1.5233 3.4174e-06 2.4812e-06 1.0307e-06
  0.4630 21598.27 1.5233 5.7347e-06 2.4799e-06 1.0324e-06
  0.4620 21645.02 1.5233 4.6161e-06 2.4900e-06 1.0549e-06
  0.4610 21691.97 1.5233 2.3098e-06 2.4671e-06 9.9408e-07
  0.4600 21739.13 1.5233 5.0050e-06 2.4823e-06 9.9956e-07
  0.4590 21786.49 1.5233 4.4436e-06 2.4910e-06 1.0174e-06
  0.4580 21834.06 1.5233 3.4819e-06 2.5171e-06 1.0724e-06
  0.4570 21881.84 1.5233 2.3261e-06 2.5072e-06 1.0289e-06
  0.4560 21929.82 1.5233 5.7588e-06 2.5102e-06 1.0239e-06
  0.4550 21978.02 1.5233 5.7803e-06 2.5461e-06 1.0645e-06
  0.4540 22026.43 1.5233 3.4863e-06 2.5250e-06 1.0329e-06
  0.4530 22075.05 1.5233 5.7706e-06 2.5561e-06 1.0551e-06
  0.4520 22123.89 1.5233 4.6490e-06 2.5729e-06 1.0669e-06
  0.4510 22172.95 1.5233 2.3244e-06 2.5516e-06 1.0363e-06
  0.4500 22222.22 1.5234 5.1490e-09 2.5832e-06 1.0826e-06
  0.4490 22271.71 1.5234 4.4433e-06 2.5835e-06 1.0571e-06
  0.4480 22321.43 1.5234 3.4820e-06 2.5813e-06 1.0359e-06
  0.4470 22371.37 1.5234 2.3272e-06 2.5894e-06 9.9999e-07
  0.4460 22421.52 1.5234 5.7601e-06 2.5960e-06 1.0276e-06
  0.4450 22471.91 1.5234 5.7834e-06 2.6178e-06 1.0323e-06
  0.4440 22522.52 1.5234 4.1432e-06 2.6421e-06 1.0610e-06
  0.4430 22573.36 1.5234 2.8441e-06 2.6143e-06 1.0183e-06
  0.4420 22624.43 1.5234 5.9034e-06 2.6576e-06 1.0776e-06
  0.4410 22675.74 1.5234 5.6694e-06 2.6418e-06 1.0476e-06
  0.4400 22727.27 1.5234 4.9981e-06 2.6693e-06 1.0406e-06
  0.4390 22779.04 1.5234 6.6270e-06 2.6862e-06 1.0495e-06
  0.4380 22831.05 1.5234 5.7798e-06 2.7033e-06 1.0830e-06
  0.4370 22883.29 1.5234 3.8680e-06 2.7113e-06 1.0757e-06
  0.4360 22935.78 1.5234 1.9475e-06 2.7122e-06 1.0501e-06
  0.4350 22988.51 1.5234 4.9567e-06 2.7073e-06 1.0395e-06
  0.4340 23041.47 1.5234 4.1012e-06 2.7384e-06 1.0839e-06
  0.4330 23094.69 1.5234 2.8180e-06 2.7345e-06 1.0713e-06
  0.4320 23148.15 1.5234 5.8929e-06 2.7405e-06 1.0433e-06
  0.4310 23201.86 1.5234 5.5115e-06 2.7780e-06 1.0816e-06
  0.4300 23255.81 1.5234 5.0079e-06 2.7718e-06 1.0743e-06
  0.4290 23310.02 1.5234 3.4831e-06 2.8095e-06 1.1123e-06
  0.4280 23364.49 1.5234 5.3136e-06 2.8114e-06 1.0928e-06
  0.4270 23419.21 1.5234 3.8558e-06 2.8082e-06 1.0832e-06
  0.4260 23474.18 1.5234 1.9253e-06 2.8458e-06 1.1206e-06
  0.4250 23529.41 1.5234 8.4386e-09 2.8489e-06 1.1298e-06
  0.4240 23584.91 1.5234 4.4431e-06 2.8630e-06 1.1265e-06
  0.4230 23640.66 1.5234 3.4840e-06 2.8768e-06 1.1242e-06
  0.4220 23696.68 1.5234 2.3314e-06 2.8688e-06 1.1041e-06
  0.4210 23752.97 1.5234 1.1734e-06 2.9009e-06 1.1273e-06
  0.4200 23809.53 1.5234 5.0124e-06 2.8931e-06 1.1094e-06
  0.4190 23866.35 1.5234 4.1517e-06 2.8921e-06 1.0958e-06
  0.4180 23923.44 1.5234 2.8482e-06 2.9308e-06 1.1211e-06
  0.4170 23980.82 1.5234 5.9052e-06 2.9374e-06 1.1534e-06
  0.4160 24038.46 1.5234 5.6701e-06 2.9476e-06 1.1473e-06
  0.4150 24096.39 1.5234 4.9958e-06 2.9667e-06 1.1530e-06
  0.4140 24154.59 1.5234 3.4736e-06 2.9525e-06 1.1369e-06
  0.4130 24213.08 1.5235 5.3088e-06 2.9855e-06 1.1751e-06
  0.4120 24271.85 1.5235 3.8530e-06 2.9788e-06 1.1824e-06
  0.4110 24330.90 1.5235 1.9273e-06 2.9955e-06 1.1704e-06
  0.4100 24390.24 1.5235 4.6892e-09 3.0185e-06 1.1734e-06
  0.4090 24449.88 1.5235 4.4432e-06 3.0075e-06 1.1837e-06
  0.4080 24509.80 1.5235 3.4802e-06 3.0451e-06 1.2098e-06
  0.4070 24570.02 1.5235 2.3236e-06 3.0349e-06 1.1934e-06
  0.4060 24630.54 1.5235 1.1612e-06 3.0484e-06 1.2117e-06
  0.4050 24691.36 1.5235 1.1030e-08 3.0579e-06 1.2118e-06
  0.4040 24752.47 1.5235 4.1416e-06 3.0732e-06 1.2360e-06
  0.4030 24813.90 1.5235 2.8433e-06 3.0997e-06 1.2398e-06
  0.4020 24875.62 1.5235 2.4919e-06 3.1088e-06 1.2261e-06
  0.4010 24937.66 1.5235 3.4112e-06 3.1077e-06 1.2325e-06
  0.4000 25000.00 1.5235 5.7125e-06 3.1489e-06 1.2584e-06
