From Roush et al. (2007) J. Geophys. Res.-Planets
Gypsum optical constants from Fresnel measurements.
Frequency  Real    Imaginary
 (cm-1)    index    index
400.1543 1.707927 0.4014287
401.1186 1.704808 0.4015599
402.0828 1.70171 0.4016228
403.047 1.698636 0.4016175
404.0112 1.695587 0.4015455
404.9755 1.692567 0.4014073
405.9397 1.689578 0.4012044
406.9039 1.686623 0.4009378
407.8681 1.683705 0.4006087
408.8324 1.680825 0.4002186
409.7966 1.677986 0.3997692
410.7608 1.675192 0.3992623
411.7251 1.672443 0.3986992
412.6893 1.669743 0.3980823
413.6535 1.667095 0.3974134
414.6177 1.664499 0.3966945
415.582 1.661958 0.3959278
416.5462 1.659475 0.3951159
417.5104 1.657052 0.3942613
418.4746 1.65469 0.3933664
419.4389 1.652392 0.3924337
420.4031 1.650159 0.3914664
421.3673 1.647993 0.3904672
422.3316 1.645896 0.389439
423.2958 1.64387 0.3883853
424.26 1.641916 0.3873092
425.2242 1.640035 0.3862138
426.1885 1.638229 0.3851029
427.1527 1.636499 0.38398
428.1169 1.634846 0.3828491
429.0811 1.633271 0.3817138
430.0454 1.631775 0.380578
431.0096 1.630359 0.3794464
431.9738 1.629023 0.3783227
432.9381 1.627768 0.3772114
433.9023 1.626595 0.3761171
434.8665 1.625503 0.375045
435.8307 1.624492 0.3739992
436.795 1.623562 0.3729854
437.7592 1.622712 0.3720085
438.7234 1.621943 0.3710738
439.6876 1.621253 0.3701874
440.6519 1.620641 0.3693543
441.6161 1.620105 0.3685812
442.5803 1.619644 0.3678738
443.5446 1.619256 0.3672386
444.5088 1.618937 0.3666821
445.473 1.618686 0.3662111
446.4372 1.618498 0.3658327
447.4015 1.61837 0.3655536
448.3657 1.618297 0.3653815
449.3299 1.618274 0.3653241
450.2941 1.618295 0.3653886
451.2584 1.618353 0.3655828
452.2226 1.618441 0.3659149
453.1868 1.618551 0.3663922
454.1511 1.618672 0.367023
455.1153 1.618796 0.3678148
456.0795 1.618908 0.368775
457.0437 1.618998 0.3699107
458.008 1.619049 0.3712288
458.9722 1.619047 0.372735
459.9364 1.618974 0.3744347
460.9006 1.61881 0.3763318
461.8649 1.618536 0.3784296
462.8291 1.618128 0.3807285
463.7933 1.617562 0.383228
464.7576 1.616814 0.3859256
465.7218 1.615855 0.3888142
466.686 1.614658 0.3918856
467.6502 1.613194 0.3951269
468.6145 1.611432 0.3985222
469.5787 1.609344 0.4020494
470.5429 1.606899 0.4056834
471.5071 1.60407 0.4093933
472.4714 1.600831 0.4131435
473.4356 1.597161 0.4168921
474.3998 1.593041 0.4205933
475.3641 1.588458 0.4241966
476.3283 1.583406 0.4276462
477.2925 1.577886 0.4308847
478.2567 1.571906 0.4338523
479.221 1.565485 0.4364886
480.1852 1.558652 0.4387339
481.1494 1.551442 0.4405318
482.1136 1.543901 0.4418305
483.0779 1.536084 0.4425841
484.0421 1.528052 0.4427549
485.0063 1.519873 0.4423148
485.9706 1.511616 0.4412447
486.9348 1.503356 0.4395379
487.899 1.495166 0.4371974
488.8632 1.487116 0.4342376
489.8275 1.479272 0.4306813
490.7917 1.471697 0.4265627
491.7559 1.464447 0.421921
492.7201 1.457567 0.4168027
493.6844 1.451097 0.4112575
494.6486 1.445069 0.40534
495.6128 1.439504 0.3991039
496.5771 1.434415 0.392603
497.5413 1.429812 0.3858917
498.5055 1.425693 0.3790203
499.4697 1.422053 0.3720361
500.434 1.418882 0.3649826
501.3982 1.416166 0.3579012
502.3624 1.413886 0.3508273
503.3266 1.412022 0.3437922
504.2909 1.410554 0.3368226
505.2551 1.409458 0.3299439
506.2193 1.408711 0.323175
507.1836 1.408291 0.3165311
508.1478 1.408173 0.3100273
509.112 1.408336 0.3036728
510.0762 1.408759 0.2974756
511.0405 1.409421 0.2914408
512.0047 1.410303 0.2855732
512.9689 1.411388 0.2798744
513.9331 1.412657 0.274345
514.8974 1.414097 0.2689843
515.8616 1.415692 0.2637915
516.8258 1.41743 0.2587644
517.7901 1.419298 0.2538997
518.7543 1.421286 0.2491948
519.7185 1.423384 0.2446456
520.6827 1.425582 0.2402486
521.647 1.427874 0.2359991
522.6112 1.430251 0.2318938
523.5754 1.432708 0.227928
524.5396 1.435238 0.2240977
525.5039 1.437838 0.2203983
526.4681 1.440502 0.2168263
527.4323 1.443227 0.2133775
528.3966 1.44601 0.2100478
529.3608 1.448848 0.2068339
530.325 1.451738 0.2037324
531.2892 1.454679 0.2007394
532.2535 1.457669 0.1978515
533.2177 1.460708 0.1950667
534.1819 1.463794 0.1923813
535.1461 1.466926 0.1897929
536.1104 1.470106 0.187299
537.0746 1.473333 0.1848975
538.0388 1.476607 0.1825862
539.0031 1.479929 0.1803633
539.9673 1.4833 0.178227
540.9315 1.486721 0.1761762
541.8957 1.490193 0.1742093
542.86 1.493719 0.1723256
543.8242 1.497299 0.1705238
544.7884 1.500937 0.1688038
545.7526 1.504634 0.1671652
546.7169 1.508393 0.1656076
547.6811 1.512217 0.1641311
548.6453 1.516109 0.1627362
549.6096 1.520072 0.1614237
550.5738 1.52411 0.1601946
551.538 1.528227 0.1590497
552.5022 1.532427 0.1579912
553.4665 1.536715 0.157021
554.4307 1.541095 0.1561409
555.3949 1.545572 0.155354
556.3591 1.550153 0.1546638
557.3234 1.554845 0.1540738
558.2876 1.559652 0.1535883
559.2518 1.564582 0.153213
560.2161 1.569643 0.1529525
561.1803 1.574843 0.1528141
562.1445 1.580189 0.1528047
563.1087 1.585693 0.152933
564.073 1.591364 0.1532083
565.0372 1.597212 0.1536415
566.0014 1.603249 0.1542447
566.9656 1.609488 0.1550322
567.9299 1.615942 0.1560198
568.8941 1.622625 0.1572254
569.8583 1.629552 0.15867
570.8226 1.636742 0.1603768
571.7868 1.644209 0.1623732
572.751 1.651973 0.1646898
573.7152 1.660054 0.167363
574.6795 1.668474 0.1704336
575.6437 1.677252 0.1739495
576.6079 1.686411 0.177966
577.5721 1.695974 0.1825473
578.5364 1.705964 0.1877691
579.5006 1.716401 0.1937179
580.4648 1.727303 0.200497
581.4291 1.738687 0.2082275
582.3933 1.750559 0.2170494
583.3575 1.762916 0.2271303
584.3217 1.775741 0.2386657
585.286 1.788996 0.2518876
586.2502 1.802603 0.2670626
587.2144 1.816443 0.2845048
588.1786 1.830331 0.3045744
589.1429 1.84399 0.3276811
590.1071 1.857013 0.354267
591.0713 1.868826 0.384802
592.0356 1.878637 0.4197399
592.9998 1.885374 0.4594356
593.964 1.887649 0.5040537
594.9282 1.883753 0.5533879
595.8925 1.871724 0.6066544
596.8567 1.849561 0.6622459
597.8209 1.815602 0.7176146
598.7852 1.769026 0.7693211
599.7494 1.710392 0.8134094
600.7136 1.641851 0.8461452
601.6778 1.566974 0.8647975
602.6421 1.490083 0.868212
603.6063 1.41546 0.8569093
604.5705 1.346617 0.8327468
605.5347 1.28599 0.798357
606.499 1.23491 0.7566122
607.4632 1.193798 0.7102664
608.4274 1.162374 0.6617197
609.3917 1.139895 0.6129433
610.3559 1.125338 0.5654772
611.3201 1.117527 0.5204192
612.2843 1.115258 0.4784851
613.2486 1.117378 0.4400558
614.2128 1.12285 0.4052606
615.177 1.130788 0.3740237
616.1412 1.140462 0.3461476
617.1055 1.151299 0.3213598
618.0697 1.162856 0.299365
619.0339 1.174803 0.2798572
619.9982 1.186904 0.2625453
620.9624 1.198985 0.2471675
621.9266 1.210932 0.2334835
622.8908 1.222666 0.2212834
623.8551 1.234141 0.2103827
624.8193 1.245327 0.2006243
625.7835 1.256214 0.19187
626.7477 1.266799 0.1840017
627.712 1.277091 0.1769172
628.6762 1.287098 0.170531
629.6404 1.296837 0.1647671
630.6047 1.306326 0.159561
631.5689 1.315581 0.1548591
632.5331 1.324624 0.1506134
633.4973 1.333474 0.1467835
634.4616 1.342153 0.1433355
635.4258 1.350678 0.14024
636.39 1.359072 0.1374729
637.3542 1.367354 0.1350135
638.3185 1.375544 0.132845
639.2827 1.383662 0.1309548
640.2469 1.391727 0.1293321
641.2112 1.399761 0.1279704
642.1754 1.407782 0.1268655
643.1396 1.41581 0.1260158
644.1038 1.423867 0.1254232
645.0681 1.431975 0.1250925
646.0323 1.440154 0.1250319
646.9965 1.448426 0.1252515
647.9607 1.456816 0.1257673
648.925 1.465348 0.1265981
649.8892 1.474046 0.1277684
650.8534 1.482936 0.1293074
651.8177 1.492048 0.1312519
652.7819 1.501407 0.1336442
653.7461 1.511044 0.1365373
654.7103 1.520989 0.1399946
655.6746 1.531273 0.1440926
656.6388 1.541921 0.148921
657.603 1.552963 0.1545906
658.5672 1.564418 0.1612345
659.5315 1.576302 0.169013
660.4957 1.588613 0.1781179
661.4599 1.601329 0.1887837
662.4242 1.614399 0.2012918
663.3884 1.627717 0.2159763
664.3526 1.641107 0.233236
665.3168 1.654284 0.2535341
666.2811 1.666811 0.2773953
667.2453 1.678021 0.3053736
668.2095 1.686957 0.3380097
669.1737 1.692271 0.3757124
670.138 1.692169 0.4185759
671.1022 1.684421 0.4660737
672.0664 1.666562 0.5167252
673.0307 1.636354 0.567765
673.9949 1.592575 0.6150889
674.9591 1.535842 0.6537993
675.9233 1.469082 0.6792929
676.8876 1.39715 0.688567
677.8518 1.325707 0.681027
678.816 1.259837 0.6584113
679.7802 1.203165 0.6240126
680.7445 1.157585 0.5817213
681.7087 1.123495 0.535293
682.6729 1.100173 0.4878815
683.6372 1.086218 0.4418641
684.6014 1.079921 0.3988391
685.5656 1.079537 0.3596873
686.5298 1.083482 0.3247432
687.4941 1.090432 0.2939557
688.4583 1.099343 0.2670538
689.4225 1.109437 0.2436433
690.3867 1.120152 0.2232993
691.351 1.1311 0.2056068
692.3152 1.142014 0.1901921
693.2794 1.152723 0.1767202
694.2437 1.163121 0.164903
695.2079 1.173142 0.1544988
696.1721 1.182755 0.1452998
697.1363 1.191948 0.1371327
698.1006 1.200724 0.1298509
699.0648 1.209089 0.1233333
700.029 1.21706 0.117476
700.9932 1.224657 0.1121921
701.9575 1.231898 0.1074072
702.9217 1.238803 0.1030594
703.8859 1.245393 0.099095233
704.8502 1.251687 0.095468976
705.8144 1.257704 0.092142306
706.7786 1.263461 0.089080222
707.7428 1.268975 0.086254232
708.7071 1.274263 0.0836391
709.6713 1.279336 0.081213005
710.6355 1.284211 0.078956373
711.5997 1.288898 0.076852739
712.564 1.29341 0.074887127
713.5282 1.297757 0.07304702
714.4924 1.301949 0.07131999
715.4567 1.305997 0.069696486
716.4209 1.309906 0.068167277
717.3851 1.313687 0.066724576
718.3493 1.317346 0.065360419
719.3136 1.320891 0.064069122
720.2778 1.324327 0.06284523
721.242 1.327659 0.061682116
722.2062 1.330895 0.060576402
723.1705 1.33404 0.059523266
724.1347 1.337096 0.058518425
725.0989 1.34007 0.057559744
726.0632 1.342965 0.05664273
727.0274 1.345786 0.055765159
727.9916 1.348535 0.054924589
728.9558 1.351216 0.054117776
729.9201 1.353833 0.053343471
730.8843 1.356389 0.052599132
731.8485 1.358885 0.05188261
732.8127 1.361326 0.051192746
733.777 1.363713 0.050528262
734.7412 1.366049 0.049886599
735.7054 1.368335 0.049267434
736.6697 1.370575 0.048669174
737.6339 1.372769 0.048090126
738.5981 1.374921 0.047530361
739.5623 1.377031 0.046988033
740.5266 1.379101 0.04646311
741.4908 1.381133 0.045953594
742.455 1.383129 0.045459352
743.4192 1.385089 0.044979557
744.3835 1.387015 0.044513337
745.3477 1.388909 0.04406045
746.3119 1.390771 0.04361926
747.2762 1.392603 0.043190815
748.2404 1.394406 0.042773411
749.2046 1.396181 0.042367369
750.1688 1.397928 0.041971602
751.1331 1.39965 0.041584969
752.0973 1.401346 0.041209172
753.0615 1.403018 0.040841598
754.0257 1.404666 0.040483199
754.99 1.406291 0.040132739
755.9542 1.407895 0.039791178
756.9184 1.409477 0.039457235
757.8827 1.411039 0.039130341
758.8469 1.41258 0.038810682
759.8111 1.414103 0.038498431
760.7753 1.415606 0.038192209
761.7396 1.417092 0.037894525
762.7038 1.41856 0.037600826
763.668 1.420011 0.0373144
764.6322 1.421446 0.037032198
765.5965 1.422865 0.036757559
766.5607 1.424268 0.036489021
767.5249 1.425657 0.036223426
768.4892 1.42703 0.035964161
769.4534 1.42839 0.035711356
770.4176 1.429736 0.035460111
771.3818 1.431069 0.035215538
772.3461 1.432389 0.03497437
773.3103 1.433696 0.034738388
774.2745 1.434991 0.034507703
775.2387 1.436275 0.034280684
776.203 1.437546 0.034057397
777.1672 1.438807 0.033837926
778.1314 1.440057 0.033622339
779.0957 1.441297 0.033410713
780.0599 1.442526 0.033203125
781.0241 1.443745 0.03299965
781.9883 1.444954 0.032798547
782.9526 1.446155 0.032599859
783.9168 1.447345 0.032405473
784.881 1.448528 0.032213613
785.8452 1.449701 0.032026187
786.8095 1.450866 0.031841405
787.7737 1.452023 0.031659305
788.7379 1.453172 0.031479944
789.7022 1.454314 0.031303361
790.6664 1.455448 0.031129604
791.6306 1.456574 0.030960651
792.5948 1.457694 0.030792706
793.5591 1.458806 0.030627731
794.5233 1.459912 0.03046382
795.4875 1.461012 0.030302957
796.4517 1.462105 0.030145189
797.416 1.463192 0.029990567
798.3802 1.464273 0.029837141
799.3444 1.465348 0.029686937
800.3087 1.466417 0.029537989
801.2729 1.467481 0.029392341
802.2371 1.46854 0.029250044
803.2013 1.469594 0.029109098
804.1656 1.470642 0.028969524
805.1298 1.471686 0.028831344
806.094 1.472725 0.028694574
807.0582 1.47376 0.028561322
808.0225 1.47479 0.028431641
808.9867 1.475815 0.028301364
809.9509 1.476837 0.028174717
810.9152 1.477854 0.028047496
811.8794 1.478868 0.027923968
812.8436 1.479877 0.027802033
813.8078 1.480884 0.027683867
814.7721 1.481886 0.027563034
815.7363 1.482885 0.027448183
816.7005 1.483881 0.027332848
817.6647 1.484874 0.027221406
818.629 1.485864 0.027107306
819.5932 1.48685 0.026999349
820.5574 1.487834 0.026890956
821.5217 1.488815 0.026784351
822.4859 1.489793 0.026679555
823.4501 1.490769 0.026576588
824.4143 1.491742 0.02647322
825.3786 1.492713 0.026373968
826.3428 1.493682 0.02627434
827.307 1.494648 0.026178889
828.2712 1.495613 0.026083088
829.2355 1.496576 0.025986932
830.1997 1.497536 0.025895024
831.1639 1.498495 0.025805099
832.1282 1.499452 0.025714858
833.0924 1.500408 0.025624299
834.0566 1.501362 0.025538089
835.0208 1.502315 0.025453929
835.9851 1.503267 0.02536949
836.9493 1.504217 0.025284767
837.9135 1.505166 0.025202125
838.8777 1.506114 0.025123956
839.842 1.507061 0.025045544
840.8062 1.508006 0.024966886
841.7704 1.508952 0.024890373
842.7347 1.509896 0.024816027
843.6989 1.51084 0.024741458
844.6631 1.511783 0.024669079
845.6273 1.512726 0.024596486
846.5916 1.513668 0.02452611
847.5558 1.51461 0.024457969
848.52 1.515552 0.024389636
849.4842 1.516494 0.024323562
850.4485 1.517435 0.02425731
851.4127 1.518376 0.024193339
852.3769 1.519318 0.024131667
853.3412 1.520259 0.024069838
854.3054 1.521201 0.024010334
855.2696 1.522143 0.023950681
856.2338 1.523085 0.023893373
857.1981 1.524028 0.023835929
858.1623 1.524971 0.023778344
859.1265 1.525915 0.023723133
860.0907 1.526859 0.023670312
861.055 1.527804 0.023617372
862.0192 1.52875 0.023566842
862.9834 1.529697 0.023516204
863.9477 1.530645 0.023467997
864.9119 1.531594 0.023419691
865.8761 1.532543 0.023373835
866.8403 1.533494 0.023327889
867.8046 1.534446 0.023281852
868.7688 1.5354 0.023240853
869.733 1.536355 0.023197213
870.6972 1.537311 0.023156065
871.6615 1.538269 0.023114845
872.6257 1.539228 0.023076132
873.5899 1.540189 0.023039943
874.5542 1.541152 0.023001105
875.5184 1.542117 0.022967393
876.4826 1.543083 0.02293103
877.4468 1.544052 0.022899818
878.4111 1.545022 0.022865957
879.3753 1.545995 0.022834655
880.3395 1.54697 0.022805924
881.3037 1.547947 0.022774538
882.268 1.548926 0.022745732
883.2322 1.549908 0.022719512
884.1964 1.550892 0.022695888
885.1607 1.551879 0.022669611
886.1249 1.552869 0.022645935
887.0891 1.553861 0.022622235
888.0533 1.554856 0.022601146
889.0176 1.555854 0.022580039
889.9818 1.556855 0.022561552
890.946 1.557859 0.022543052
891.9102 1.558866 0.022527182
892.8745 1.559876 0.022511302
893.8387 1.56089 0.022495409
894.8029 1.561907 0.022482157
895.7672 1.562927 0.022468897
896.7314 1.563951 0.022458283
897.6956 1.564979 0.022447664
898.6598 1.56601 0.022439698
899.6241 1.567045 0.022431727
900.5883 1.568084 0.022423755
901.5525 1.569127 0.022418438
902.5167 1.570174 0.02241312
903.481 1.571225 0.02241046
904.4452 1.57228 0.0224078
905.4094 1.57334 0.02240514
906.3737 1.574404 0.02240514
907.3379 1.575472 0.0224078
908.3021 1.576545 0.0224078
909.2663 1.577623 0.02241312
910.2306 1.578706 0.022418438
911.1948 1.579794 0.022423755
912.159 1.580886 0.022431727
913.1232 1.581984 0.022439698
914.0875 1.583087 0.02245032
915.0517 1.584195 0.022460938
916.0159 1.585309 0.022474201
916.9802 1.586427 0.022484807
917.9444 1.587552 0.022500709
918.9086 1.588683 0.022516597
919.8728 1.589819 0.022532474
920.8371 1.590961 0.022550983
921.8013 1.592109 0.022572117
922.7655 1.593264 0.022593234
923.7297 1.594424 0.022616964
924.694 1.595591 0.02264067
925.6582 1.596765 0.022664351
926.6224 1.597945 0.022693262
927.5867 1.599132 0.022722136
928.5509 1.600326 0.022750972
929.5151 1.601527 0.022782389
930.4793 1.602735 0.022813762
931.4436 1.60395 0.022847703
932.4078 1.605173 0.022884196
933.372 1.606403 0.022918031
934.3362 1.607641 0.022957008
935.3005 1.608886 0.022998514
936.2647 1.61014 0.023039943
937.2289 1.611401 0.023081297
938.1932 1.612671 0.023125157
939.1574 1.61395 0.023174077
940.1216 1.615236 0.023220327
941.0858 1.616532 0.023269048
942.0501 1.617836 0.023322778
943.0143 1.61915 0.023373835
943.9785 1.620472 0.023427324
944.9427 1.621804 0.02348577
945.907 1.623145 0.023541538
946.8712 1.624496 0.023602225
947.8354 1.625857 0.023662757
948.7997 1.627228 0.023725646
949.7639 1.628609 0.023790874
950.7281 1.63 0.023860922
951.6923 1.631402 0.023928272
952.6566 1.632815 0.024000403
953.6208 1.634238 0.024072316
954.585 1.635673 0.024146482
955.5492 1.637119 0.024222884
956.5135 1.638576 0.02430395
957.4777 1.640046 0.024384748
958.4419 1.641527 0.024467714
959.4062 1.64302 0.024552828
960.3704 1.644526 0.024640067
961.3346 1.646044 0.024729408
962.2988 1.647576 0.024820831
963.2631 1.64912 0.024916701
964.2273 1.650678 0.025012204
965.1915 1.652249 0.025112091
966.1557 1.653834 0.025211584
967.12 1.655434 0.025315393
968.0842 1.657047 0.025423469
969.0484 1.658675 0.025531087
970.0127 1.660318 0.025642902
970.9769 1.661977 0.025756547
971.9411 1.66365 0.025876602
972.9053 1.665339 0.025996104
973.8696 1.667045 0.026117342
974.8338 1.668767 0.026242562
975.798 1.670505 0.026371708
976.7622 1.672261 0.026502473
977.7265 1.674033 0.026637074
978.6907 1.675824 0.026773224
979.6549 1.677632 0.026915327
980.6192 1.679459 0.027058888
981.5834 1.681304 0.027206074
982.5476 1.683168 0.027356826
983.5118 1.685052 0.027511084
984.4761 1.686956 0.027668793
985.4403 1.68888 0.027829889
986.4045 1.690824 0.027994318
987.3688 1.69279 0.028164137
988.333 1.694777 0.02833504
989.2972 1.696786 0.028511193
990.2614 1.698817 0.028690418
991.2257 1.700872 0.028874725
992.1899 1.702949 0.029064016
993.1541 1.70505 0.029256156
994.1183 1.707175 0.029455138
995.0826 1.709326 0.029656805
996.0468 1.711501 0.029861104
997.011 1.713703 0.030073924
997.9753 1.715931 0.030289184
998.9395 1.718186 0.030508788
999.9037 1.720468 0.030736519
1000.868 1.722778 0.030968351
1001.832 1.725118 0.031202279
1002.796 1.727487 0.031445842
1003.761 1.729885 0.031693175
1004.725 1.732315 0.031946059
1005.689 1.734776 0.032206211
1006.653 1.737269 0.032469787
1007.617 1.739795 0.032742161
1008.582 1.742355 0.033019513
1009.546 1.744949 0.033305291
1010.51 1.747579 0.033595737
1011.474 1.750244 0.033894245
1012.439 1.752947 0.034198865
1013.403 1.755687 0.034511156
1014.367 1.758466 0.03483263
1015.331 1.761285 0.035161335
1016.296 1.764144 0.035497073
1017.26 1.767045 0.035841309
1018.224 1.769989 0.036195442
1019.188 1.772976 0.036555931
1020.153 1.776009 0.036927428
1021.117 1.779087 0.037306413
1022.081 1.782212 0.037697401
1023.045 1.785386 0.03809689
1024.009 1.78861 0.038507719
1024.974 1.791884 0.03892646
1025.938 1.795211 0.039357409
1026.902 1.798592 0.039801661
1027.866 1.802028 0.040255822
1028.83 1.80552 0.040722482
1029.795 1.809072 0.041201215
1030.759 1.812682 0.041693043
1031.723 1.816355 0.042198915
1032.687 1.82009 0.042718332
1033.652 1.823892 0.043252185
1034.616 1.827759 0.043799944
1035.58 1.831696 0.044363786
1036.544 1.835704 0.044943098
1037.509 1.839786 0.045538608
1038.473 1.843942 0.046153557
1039.437 1.848177 0.046784632
1040.401 1.852491 0.04743496
1041.365 1.856888 0.048104998
1042.33 1.861371 0.048793934
1043.294 1.865941 0.049504593
1044.258 1.870602 0.050237235
1045.222 1.875356 0.050992087
1046.187 1.880208 0.051770478
1047.151 1.885159 0.052574765
1048.115 1.890214 0.053403772
1049.079 1.895376 0.054259669
1050.043 1.900648 0.055144444
1051.008 1.906036 0.056057792
1051.972 1.911541 0.057002522
1052.936 1.91717 0.057979159
1053.9 1.922925 0.058990154
1054.865 1.928814 0.060035761
1055.829 1.934839 0.061118107
1056.793 1.941006 0.06224006
1057.757 1.94732 0.06340234
1058.722 1.953789 0.064608298
1059.686 1.960417 0.065859169
1060.65 1.967211 0.067157753
1061.614 1.974178 0.068505704
1062.578 1.981324 0.069907822
1063.543 1.988658 0.071365945
1064.507 1.996187 0.072882414
1065.471 2.003921 0.074460886
1066.435 2.011867 0.076106116
1067.4 2.020036 0.07782229
1068.364 2.028437 0.079612307
1069.328 2.037082 0.081481546
1070.292 2.045982 0.083434679
1071.256 2.055149 0.085478507
1072.221 2.064598 0.087617576
1073.185 2.07434 0.089858346
1074.149 2.084391 0.092207618
1075.113 2.094767 0.094674952
1076.078 2.105488 0.097268514
1077.042 2.116568 0.099995181
1078.006 2.128029 0.1028675
1078.97 2.139893 0.1058963
1079.935 2.152184 0.1090934
1080.899 2.164924 0.1124733
1081.863 2.178142 0.1160508
1082.827 2.191869 0.119845
1083.792 2.206133 0.1238724
1084.756 2.220972 0.1281559
1085.72 2.236422 0.13272
1086.684 2.252528 0.1375923
1087.648 2.269331 0.1428029
1088.613 2.286883 0.1483861
1089.577 2.305239 0.1543849
1090.541 2.324463 0.160844
1091.505 2.344615 0.1678168
1092.469 2.365774 0.175365
1093.434 2.388023 0.1835626
1094.398 2.41145 0.1924912
1095.362 2.436158 0.2022528
1096.326 2.462262 0.212964
1097.291 2.489892 0.2247696
1098.255 2.519183 0.2378361
1099.219 2.550297 0.252372
1100.183 2.583408 0.2686297
1101.148 2.618715 0.2869237
1102.112 2.656422 0.3076381
1103.076 2.696758 0.3312624
1104.04 2.739964 0.358418
1105.005 2.786259 0.38989
1105.969 2.835841 0.4266992
1106.933 2.888814 0.4701684
1107.897 2.945111 0.5220208
1108.861 3.004292 0.5844761
1109.826 3.065294 0.6603881
1110.79 3.125907 0.7532725
1111.754 3.182006 0.8671457
1112.718 3.22643 1.005717
1113.682 3.247925 1.170523
1114.647 3.231218 1.357184
1115.611 3.160816 1.550602
1116.575 3.030213 1.723698
1117.539 2.851932 1.845752
1118.504 2.656795 1.898652
1119.468 2.479419 1.886378
1120.432 2.343101 1.829405
1121.396 2.255688 1.752555
1122.361 2.213536 1.676679
1123.325 2.207129 1.6159
1124.289 2.225235 1.57799
1125.253 2.2573 1.566036
1126.218 2.294333 1.580166
1127.182 2.328912 1.618821
1128.146 2.354807 1.679426
1129.11 2.366639 1.758551
1130.074 2.359805 1.85176
1131.039 2.330742 1.953517
1132.003 2.277442 2.057239
1132.967 2.200003 2.155798
1133.931 2.100959 2.242373
1134.896 1.98498 2.311537
1135.86 1.858092 2.36002
1136.824 1.726632 2.386946
1137.788 1.596192 2.393529
1138.752 1.471073 2.382372
1139.717 1.354099 2.356721
1140.681 1.24682 2.319895
1141.645 1.149745 2.274892
1142.609 1.062711 2.224241
1143.574 0.9851332 2.169948
1144.538 0.9162424 2.113573
1145.502 0.8551657 2.056261
1146.466 0.8010393 1.998836
1147.431 0.753067 1.941901
1148.395 0.7105072 1.885851
1149.359 0.6727055 1.830951
1150.323 0.639083 1.77736
1151.287 0.6091449 1.725183
1152.252 0.5824527 1.674455
1153.216 0.5586317 1.625179
1154.18 0.5373551 1.577332
1155.144 0.5183486 1.530884
1156.109 0.5013691 1.485783
1157.073 0.4862076 1.44197
1158.037 0.4726882 1.399395
1159.001 0.4606545 1.357992
1159.965 0.4499729 1.317702
1160.93 0.4405268 1.278463
1161.894 0.4322192 1.240223
1162.858 0.4249625 1.202924
1163.822 0.418683 1.166516
1164.787 0.4133167 1.130943
1165.751 0.4088109 1.096167
1166.715 0.4051188 1.062141
1167.679 0.4022019 1.028822
1168.644 0.400029 0.9961805
1169.608 0.3985741 0.9641789
1170.572 0.3978166 0.9327881
1171.536 0.3977411 0.9019791
1172.5 0.3983369 0.8717359
1173.465 0.3995962 0.8420382
1174.429 0.4015158 0.8128725
1175.393 0.404095 0.7842272
1176.357 0.4073347 0.7561049
1177.322 0.4112375 0.7285057
1178.286 0.4158077 0.7014341
1179.25 0.4210472 0.6749102
1180.214 0.4269573 0.6489514
1181.178 0.4335364 0.6235842
1182.143 0.4407789 0.5988371
1183.107 0.448671 0.5747519
1184.071 0.4571939 0.5513654
1185.035 0.4663195 0.528719
1186 0.4760124 0.5068508
1186.964 0.4862249 0.485803
1187.928 0.4969037 0.4656065
1188.892 0.5079891 0.4462845
1189.856 0.5194128 0.4278579
1190.821 0.5311067 0.4103317
1191.785 0.5430015 0.3937027
1192.749 0.5550311 0.3779562
1193.713 0.5671289 0.3630742
1194.678 0.5792376 0.3490262
1195.642 0.5913052 0.3357774
1196.606 0.6032878 0.3232875
1197.57 0.6151442 0.3115179
1198.535 0.6268436 0.3004245
1199.499 0.6383625 0.2899633
1200.463 0.6496783 0.2800946
1201.427 0.660777 0.2707767
1202.391 0.6716486 0.2619703
1203.356 0.6822866 0.2536383
1204.32 0.6926855 0.245748
1205.284 0.7028443 0.2382665
1206.248 0.7127638 0.2311642
1207.213 0.7224474 0.2244131
1208.177 0.7318959 0.2179894
1209.141 0.7411146 0.2118695
1210.105 0.7501101 0.2060313
1211.069 0.7588856 0.2004568
1212.034 0.7674482 0.1951275
1212.998 0.7758034 0.1900274
1213.962 0.7839592 0.1851408
1214.926 0.7919196 0.1804553
1215.891 0.7996918 0.1759576
1216.855 0.8072822 0.1716366
1217.819 0.8146976 0.167481
1218.783 0.821942 0.1634823
1219.748 0.8290225 0.1596308
1220.712 0.8359449 0.1559183
1221.676 0.8427137 0.1523377
1222.64 0.8493345 0.1488817
1223.604 0.8558123 0.1455439
1224.569 0.8621528 0.1423179
1225.533 0.868359 0.1391987
1226.497 0.8744363 0.136181
1227.461 0.8803888 0.1332599
1228.426 0.8862212 0.1304306
1229.39 0.8919362 0.1276897
1230.354 0.8975384 0.1250328
1231.318 0.9030315 0.1224561
1232.282 0.9084179 0.1199564
1233.247 0.9137016 0.1175306
1234.211 0.9188856 0.1151755
1235.175 0.9239737 0.1128879
1236.139 0.9289673 0.1106659
1237.104 0.93387 0.1085064
1238.068 0.9386842 0.1064072
1239.032 0.943413 0.1043658
1239.996 0.948058 0.1023805
1240.96 0.9526218 0.100449
1241.925 0.9571074 0.098569192
1242.889 0.9615155 0.096739471
1243.853 0.9658492 0.094958305
1244.817 0.9701099 0.093223684
1245.782 0.9743004 0.091533691
1246.746 0.9784213 0.089887694
1247.71 0.9824752 0.088283762
1248.674 0.9864635 0.08672028
1249.639 0.9903883 0.085196331
1250.603 0.9942504 0.083710514
1251.567 0.9980516 0.082261622
1252.531 1.001794 0.080848157
1253.495 1.005478 0.079469927
1254.46 1.009105 0.078125
1255.424 1.012677 0.076812014
1256.388 1.016196 0.075531051
1257.352 1.019661 0.07428056
1258.317 1.023075 0.073060073
1259.281 1.026439 0.071867801
1260.245 1.029753 0.070703901
1261.209 1.033019 0.069566801
1262.173 1.036238 0.068456523
1263.138 1.039411 0.067371309
1264.102 1.042539 0.066311039
1265.066 1.045622 0.065274641
1266.03 1.048662 0.064262338
1266.995 1.05166 0.063271999
1267.959 1.054617 0.062304191
1268.923 1.057532 0.061357547
1269.887 1.060408 0.060432572
1270.852 1.063245 0.059527773
1271.816 1.066044 0.058642559
1272.78 1.068805 0.05777628
1273.744 1.07153 0.056928758
1274.708 1.074218 0.056099776
1275.673 1.076872 0.055288553
1276.637 1.07949 0.054494791
1277.601 1.082075 0.05371704
1278.565 1.084627 0.052956011
1279.53 1.087145 0.052211285
1280.494 1.089632 0.051481843
1281.458 1.092088 0.05076775
1282.422 1.094512 0.050067879
1283.386 1.096906 0.049382232
1284.351 1.099271 0.048711408
1285.315 1.101606 0.048052929
1286.279 1.103913 0.047409192
1287.243 1.106191 0.046776988
1288.208 1.108443 0.046158075
1289.172 1.110666 0.045551695
1290.136 1.112864 0.044957023
1291.1 1.115035 0.044374533
1292.065 1.11718 0.043802667
1293.029 1.1193 0.043241847
1293.993 1.121396 0.042692509
1294.957 1.123467 0.042152982
1295.922 1.125514 0.041624367
1296.886 1.127537 0.041105624
1297.85 1.129538 0.040596411
1298.814 1.131516 0.040097822
1299.778 1.133471 0.039608009
1300.743 1.135404 0.039126534
1301.707 1.137316 0.038655255
1302.671 1.139206 0.038192209
1303.635 1.141076 0.037737697
1304.599 1.142925 0.037291232
1305.564 1.144754 0.036852296
1306.528 1.146563 0.036422804
1307.492 1.148352 0.035999775
1308.456 1.150122 0.03558512
1309.421 1.151874 0.035177436
1310.385 1.153606 0.034776974
1311.349 1.155321 0.034383982
1312.313 1.157017 0.033997841
1313.278 1.158696 0.033617906
1314.242 1.160357 0.033245284
1315.206 1.162001 0.03287841
1316.17 1.163628 0.032518394
1317.135 1.165238 0.032164544
1318.099 1.166832 0.031816121
1319.063 1.16841 0.031474262
1320.027 1.169973 0.031138221
1320.991 1.171519 0.030807219
1321.956 1.17305 0.030482402
1322.92 1.174566 0.030162979
1323.884 1.176067 0.029848127
1324.848 1.177553 0.029538998
1325.812 1.179025 0.029233737
1326.777 1.180483 0.028935557
1327.741 1.181926 0.028641555
1328.705 1.183356 0.028350813
1329.669 1.184772 0.028066617
1330.634 1.186174 0.027785949
1331.598 1.187564 0.027510002
1332.562 1.18894 0.027238917
1333.526 1.190303 0.026971739
1334.491 1.191654 0.026708582
1335.455 1.192993 0.026449569
1336.419 1.194319 0.026194822
1337.383 1.195633 0.025943317
1338.348 1.196935 0.025696307
1339.312 1.198225 0.025452757
1340.276 1.199504 0.025213948
1341.24 1.200771 0.024977626
1342.204 1.202027 0.024746275
1343.169 1.203272 0.024516387
1344.133 1.204506 0.024291685
1345.097 1.205729 0.024068601
1346.061 1.206941 0.023850927
1347.026 1.208143 0.023635032
1347.99 1.209335 0.023423508
1348.954 1.210517 0.02321391
1349.918 1.211688 0.023007583
1350.882 1.212849 0.022804616
1351.847 1.214001 0.022605103
1352.811 1.215143 0.02240647
1353.775 1.216276 0.022212772
1354.739 1.217399 0.02202143
1355.704 1.218513 0.021832507
1356.668 1.219617 0.021646064
1357.632 1.220713 0.021462169
1358.596 1.2218 0.021280885
1359.561 1.222878 0.021102281
1360.525 1.223947 0.02092785
1361.489 1.225008 0.020753389
1362.453 1.22606 0.020581793
1363.417 1.227105 0.020414595
1364.382 1.22814 0.020247487
1365.346 1.229168 0.020083442
1366.31 1.230188 0.019922534
1367.274 1.2312 0.019761823
1368.239 1.232204 0.019604355
1369.203 1.233201 0.019448677
1370.167 1.23419 0.019296378
1371.131 1.235171 0.019144423
1372.095 1.236145 0.018995961
1373.06 1.237112 0.01884949
1374.024 1.238072 0.018701874
1374.988 1.239024 0.018559506
1375.952 1.239969 0.018417655
1376.917 1.240908 0.018277965
1377.881 1.24184 0.018140486
1378.845 1.242765 0.018003613
1379.809 1.243683 0.017870694
1380.774 1.244595 0.01773678
1381.738 1.245501 0.017606923
1382.702 1.2464 0.017476104
1383.666 1.247293 0.017349452
1384.63 1.248179 0.017223598
1385.595 1.249059 0.017100304
1386.559 1.249934 0.016977869
1387.523 1.250802 0.016856315
1388.487 1.251664 0.016735658
1389.452 1.252521 0.016619503
1390.416 1.253371 0.016502533
1391.38 1.254217 0.016386546
1392.344 1.255056 0.016271565
1393.308 1.25589 0.016159454
1394.273 1.256718 0.016048416
1395.237 1.257541 0.015940346
1396.201 1.258359 0.015831536
1397.165 1.259171 0.015723869
1398.13 1.259979 0.015619277
1399.094 1.260781 0.0155159
1400.058 1.261578 0.015411831
1401.022 1.26237 0.015308999
1401.986 1.263157 0.015209393
1402.951 1.263939 0.015109129
1403.915 1.264717 0.015010182
1404.879 1.265489 0.014914574
1405.843 1.266257 0.014818351
1406.808 1.26702 0.014723522
1407.772 1.267779 0.014630116
1408.736 1.268534 0.014538159
1409.7 1.269283 0.014445618
1410.665 1.270029 0.014356631
1411.629 1.27077 0.01426709
1412.593 1.271507 0.014181187
1413.557 1.272239 0.014092647
1414.521 1.272967 0.014005673
1415.486 1.273692 0.013922439
1416.45 1.274412 0.013836551
1417.414 1.275128 0.013754459
1418.378 1.275841 0.013671875
1419.343 1.276549 0.013590982
1420.307 1.277254 0.01351181
1421.271 1.277954 0.013432172
1422.235 1.278651 0.013354291
1423.199 1.279344 0.013275953
1424.164 1.280034 0.013199409
1425.128 1.28072 0.013124688
1426.092 1.281403 0.013049539
1427.056 1.282082 0.012976252
1428.021 1.282757 0.012902549
1428.985 1.28343 0.012830745
1429.949 1.284099 0.012758538
1430.913 1.284764 0.012690617
1431.877 1.285426 0.012619969
1432.842 1.286085 0.012548923
1433.806 1.286741 0.012482249
1434.77 1.287394 0.012415217
1435.734 1.288044 0.012350234
1436.699 1.288691 0.012282481
1437.663 1.289335 0.012219233
1438.627 1.289976 0.012155654
1439.591 1.290614 0.012091741
1440.556 1.291249 0.012029965
1441.52 1.291881 0.011967872
1442.484 1.292511 0.011905454
1443.448 1.293138 0.01184774
1444.412 1.293762 0.011784686
1445.377 1.294383 0.011728918
1446.341 1.295002 0.011667777
1447.305 1.295619 0.011611448
1448.269 1.296233 0.011554844
1449.234 1.296845 0.01149796
1450.198 1.297454 0.0114434
1451.162 1.298061 0.011388578
1452.126 1.298666 0.011333491
1453.09 1.299268 0.011283418
1454.055 1.299868 0.011227814
1455.019 1.300466 0.011177269
1455.983 1.301062 0.011123815
1456.947 1.301656 0.011072793
1457.912 1.302247 0.01102424
1458.876 1.302837 0.010975472
1459.84 1.303425 0.010926486
1460.804 1.304011 0.01087728
1461.769 1.304595 0.010830602
1462.733 1.305177 0.010783722
1463.697 1.305757 0.010736638
1464.661 1.306336 0.010692133
1465.625 1.306913 0.010644644
1466.59 1.307488 0.010602564
1467.554 1.308062 0.010557494
1468.518 1.308634 0.010515066
1469.482 1.309204 0.010472466
1470.447 1.309773 0.010429692
1471.411 1.310341 0.010389611
1472.375 1.310907 0.010349374
1473.339 1.311473 0.010308981
1474.303 1.312036 0.010268428
1475.268 1.312599 0.010230629
1476.232 1.31316 0.010189764
1477.196 1.31372 0.010154607
1478.16 1.314279 0.010119327
1479.125 1.314837 0.010080968
1480.089 1.315395 0.01004543
1481.053 1.315951 0.010009766
1482.017 1.316506 0.0099769616
1482.982 1.31706 0.0099410517
1483.946 1.317614 0.0099080196
1484.91 1.318167 0.0098748775
1485.874 1.318719 0.0098446505
1486.839 1.31927 0.0098112943
1487.803 1.319821 0.0097808717
1488.767 1.320372 0.0097503541
1489.731 1.320922 0.0097197406
1490.695 1.321471 0.0096921064
1491.66 1.32202 0.0096643921
1492.624 1.322569 0.0096365986
1493.588 1.323118 0.0096087251
1494.552 1.323667 0.0095838802
1495.516 1.324215 0.009555852
1496.481 1.324763 0.0095308693
1497.445 1.325312 0.0095058214
1498.409 1.32586 0.0094838496
1499.373 1.326409 0.0094618276
1500.338 1.326958 0.0094397534
1501.302 1.327507 0.0094176279
1502.266 1.328056 0.0093954504
1503.23 1.328606 0.0093732197
1504.195 1.329156 0.009357309
1505.159 1.329707 0.009334987
1506.123 1.330259 0.0093222084
1507.087 1.330811 0.0093030073
1508.052 1.331365 0.0092837662
1509.016 1.331918 0.0092709167
1509.98 1.332474 0.00925483
1510.944 1.33303 0.0092419405
1511.908 1.333587 0.0092290323
1512.873 1.334146 0.0092161065
1513.837 1.334705 0.0092064003
1514.801 1.335267 0.0091966838
1515.765 1.33583 0.0091837123
1516.729 1.336394 0.0091772201
1517.694 1.33696 0.0091707222
1518.658 1.337529 0.0091609685
1519.622 1.338099 0.0091577144
1520.586 1.338671 0.0091512036
1521.551 1.339245 0.0091479467
1522.515 1.339822 0.009144688
1523.479 1.340401 0.0091414284
1524.443 1.340983 0.009144688
1525.408 1.341568 0.009144688
1526.372 1.342155 0.0091479467
1527.336 1.342746 0.0091512036
1528.3 1.343339 0.0091577144
1529.265 1.343936 0.0091609685
1530.229 1.344537 0.0091707222
1531.193 1.345141 0.0091772201
1532.157 1.345749 0.009186957
1533.121 1.346361 0.0091999238
1534.086 1.346977 0.009212872
1535.05 1.347597 0.0092258025
1536.014 1.348222 0.0092451638
1536.978 1.348852 0.009264485
1537.943 1.349487 0.0092837662
1538.907 1.350128 0.0093062101
1539.871 1.350773 0.0093286
1540.835 1.351425 0.009357309
1541.799 1.352082 0.0093827536
1542.764 1.352746 0.0094144624
1543.728 1.353416 0.0094460659
1544.692 1.354093 0.0094838496
1545.656 1.354778 0.0095183542
1546.621 1.35547 0.009558971
1547.585 1.356169 0.0096025197
1548.549 1.356877 0.009648961
1549.513 1.357594 0.0096982541
1550.478 1.358319 0.0097503541
1551.442 1.359054 0.0098052174
1552.406 1.359798 0.0098627973
1553.37 1.360553 0.0099260509
1554.334 1.361318 0.0099918861
1555.299 1.362095 0.010063215
1556.263 1.362883 0.010136982
1557.227 1.363684 0.010216053
1558.191 1.364497 0.010300304
1559.156 1.365324 0.010389611
1560.12 1.366166 0.010486686
1561.084 1.367022 0.010585685
1562.048 1.367893 0.010692133
1563.012 1.368781 0.010805809
1563.977 1.369687 0.010923758
1564.941 1.37061 0.01105124
1565.905 1.371552 0.011185265
1566.869 1.372515 0.011328231
1567.834 1.373498 0.011477206
1568.798 1.374503 0.011639646
1569.762 1.375532 0.011809948
1570.726 1.376585 0.011990263
1571.691 1.377664 0.012182592
1572.655 1.378771 0.012388784
1573.619 1.379907 0.012608156
1574.583 1.381073 0.012837712
1575.547 1.382272 0.013088305
1576.512 1.383504 0.01335206
1577.476 1.384774 0.013634767
1578.44 1.386082 0.013937415
1579.404 1.38743 0.014260822
1580.369 1.388822 0.014605651
1581.333 1.390261 0.014978381
1582.297 1.391749 0.015376983
1583.261 1.393289 0.015807046
1584.225 1.394885 0.016267901
1585.19 1.396541 0.016765904
1586.154 1.398261 0.017303009
1587.118 1.400049 0.017884029
1588.082 1.40191 0.01851288
1589.047 1.40385 0.019195726
1590.011 1.405874 0.019938981
1590.975 1.407989 0.020749081
1591.939 1.410201 0.021630915
1592.903 1.412518 0.02259719
1593.868 1.414947 0.023657719
1594.832 1.417499 0.024820831
1595.796 1.420182 0.026105929
1596.76 1.423007 0.02752408
1597.725 1.425984 0.029098859
1598.689 1.429128 0.030846857
1599.653 1.432449 0.032798547
1600.617 1.435962 0.03498289
1601.582 1.439681 0.037438788
1602.546 1.443621 0.04020841
1603.51 1.447795 0.043343041
1604.474 1.452217 0.046909321
1605.438 1.456897 0.050981566
1606.403 1.461842 0.055656567
1607.367 1.467049 0.061043944
1608.331 1.472503 0.067283668
1609.295 1.478171 0.07454329
1610.26 1.483986 0.083025046
1611.224 1.489835 0.092970468
1612.188 1.495534 0.104666
1613.152 1.500795 0.1184351
1614.116 1.505176 0.1346196
1615.081 1.508027 0.1535429
1616.045 1.508426 0.1754208
1617.009 1.505132 0.200212
1617.973 1.496625 0.2273745
1618.938 1.48129 0.2555981
1619.902 1.45787 0.2825812
1620.866 1.426149 0.3051187
1621.83 1.387583 0.3197571
1622.795 1.345418 0.3238949
1623.759 1.303928 0.3168119
1624.723 1.267136 0.2999442
1625.687 1.237675 0.276234
1626.651 1.216429 0.2490443
1627.616 1.202857 0.2212551
1628.58 1.19563 0.1948547
1629.544 1.193191 0.1709267
1630.508 1.194121 0.1498791
1631.473 1.197279 0.1317036
1632.437 1.201816 0.1161668
1633.401 1.207139 0.1029483
1634.365 1.212845 0.091714375
1635.329 1.218668 0.082157947
1636.294 1.224442 0.074006833
1637.258 1.230063 0.067029834
1638.222 1.235474 0.061033692
1639.186 1.240643 0.055860206
1640.151 1.245558 0.051378116
1641.115 1.250219 0.047478918
1642.079 1.254633 0.044075329
1643.043 1.258809 0.041092575
1644.007 1.262762 0.038471326
1644.972 1.266506 0.036161669
1645.936 1.270055 0.034122091
1646.9 1.273423 0.032317065
1647.864 1.276624 0.030719062
1648.829 1.279671 0.029302977
1649.793 1.282575 0.02804856
1650.757 1.285349 0.026939677
1651.721 1.288002 0.025962837
1652.686 1.290544 0.025102595
1653.65 1.292983 0.024354175
1654.614 1.295328 0.023705538
1655.578 1.297586 0.023152204
1656.542 1.299763 0.022688009
1657.507 1.301865 0.022311835
1658.471 1.303898 0.022018723
1659.435 1.305866 0.021806555
1660.399 1.307772 0.021676334
1661.364 1.309619 0.021630915
1662.328 1.311408 0.021666707
1663.292 1.313141 0.021791518
1664.256 1.314816 0.022005184
1665.22 1.316431 0.02231317
1666.185 1.317981 0.022722136
1667.149 1.31946 0.023235723
1668.113 1.320858 0.023859672
1669.077 1.322163 0.02460012
1670.042 1.323357 0.025462123
1671.006 1.324419 0.026446188
1671.97 1.325323 0.027550055
1672.934 1.326039 0.028767183
1673.899 1.326532 0.03007987
1674.863 1.326765 0.031461004
1675.827 1.326706 0.032869343
1676.791 1.326327 0.034248501
1677.755 1.325614 0.035527285
1678.72 1.324576 0.036623534
1679.684 1.323248 0.037453908
1680.648 1.321694 0.037943255
1681.612 1.320004 0.038036607
1682.577 1.318284 0.037713207
1683.541 1.316641 0.036987104
1684.505 1.315168 0.035904445
1685.469 1.313937 0.034537919
1686.433 1.312987 0.03296712
1687.398 1.312331 0.031276692
1688.362 1.311959 0.029537989
1689.326 1.311845 0.027809536
1690.29 1.311956 0.026135594
1691.255 1.312253 0.02454433
1692.219 1.312702 0.023051582
1693.183 1.31327 0.021669457
1694.147 1.313929 0.020397069
1695.112 1.314653 0.019231401
1696.076 1.315425 0.018166753
1697.04 1.316229 0.017199356
1698.004 1.317051 0.016315464
1698.969 1.317883 0.015513979
1699.933 1.318718 0.014782105
1700.897 1.319549 0.01411589
1701.861 1.320373 0.013507399
1702.825 1.321186 0.012953265
1703.79 1.321987 0.01244399
1704.754 1.322773 0.011975341
1705.718 1.323545 0.011547104
1706.682 1.324301 0.011150573
1707.646 1.32504 0.010783722
1708.611 1.325764 0.010446822
1709.575 1.326472 0.010134042
1710.539 1.327163 0.0098446505
1711.503 1.32784 0.0095714331
1712.468 1.328501 0.0093190111
1713.432 1.329148 0.0090825567
1714.396 1.32978 0.0088599836
1715.36 1.330399 0.0086558098
1716.325 1.331004 0.008460802
1717.289 1.331596 0.0082792118
1718.253 1.332176 0.008104586
1719.217 1.332744 0.0079411408
1720.182 1.3333 0.0077895783
1721.146 1.333845 0.0076389099
1722.11 1.33438 0.0075050909
1723.074 1.334904 0.007372885
1724.038 1.335419 0.0072464952
1725.003 1.335923 0.007130411
1725.967 1.336419 0.0070166541
1726.931 1.336906 0.006909654
1727.895 1.337384 0.0068053515
1728.859 1.337854 0.006708316
1729.824 1.338315 0.0066098566
1730.788 1.33877 0.0065236273
1731.752 1.339216 0.0064362432
1732.716 1.339656 0.0063523497
1733.681 1.340088 0.0062720864
1734.645 1.340514 0.0061955946
1735.609 1.340933 0.0061181467
1736.573 1.341347 0.0060495664
1737.538 1.341754 0.0059851808
1738.502 1.342155 0.0059150592
1739.466 1.34255 0.0058491938
1740.43 1.34294 0.0057877293
1741.395 1.343324 0.0057308078
1742.359 1.343704 0.0056733154
1743.323 1.344078 0.0056152344
1744.287 1.344447 0.0055619073
1745.251 1.344812 0.0055080634
1746.216 1.345171 0.0054591503
1747.18 1.345527 0.0054097949
1748.144 1.345878 0.0053599849
1749.108 1.346225 0.0053153178
1750.073 1.346567 0.0052702716
1751.037 1.346906 0.0052248375
1752.001 1.34724 0.0051847561
1752.965 1.347571 0.0051385658
1753.929 1.347898 0.0051036486
1754.894 1.348222 0.0050626076
1755.858 1.348541 0.0050212312
1756.822 1.348858 0.0049854927
1757.786 1.349171 0.0049494957
1758.751 1.349481 0.0049071657
1759.715 1.349787 0.0048767054
1760.679 1.350091 0.0048460532
1761.643 1.350391 0.0048090126
1762.608 1.350688 0.0047716848
1763.572 1.350983 0.0047466364
1764.536 1.351274 0.004708814
1765.5 1.351563 0.0046770615
1766.464 1.351849 0.0046515036
1767.429 1.352132 0.0046258047
1768.393 1.352413 0.0045934785
1769.357 1.352691 0.0045609232
1770.321 1.352966 0.0045347107
1771.286 1.35324 0.0045083459
1772.25 1.35351 0.004488471
1773.214 1.353778 0.0044618328
1774.178 1.354044 0.0044350345
1775.142 1.354308 0.0044080736
1776.107 1.35457 0.004380947
1777.071 1.354829 0.0043604909
1778.035 1.355086 0.0043330663
1778.999 1.355341 0.004305467
1779.964 1.355594 0.0042846506
1780.928 1.355845 0.0042637326
1781.892 1.356094 0.0042427117
1782.856 1.356341 0.004221586
1783.821 1.356586 0.0041932529
1784.785 1.35683 0.0041790144
1785.749 1.357071 0.0041575651
1786.713 1.35731 0.0041360045
1787.677 1.357548 0.0041143307
1788.642 1.357784 0.0040998184
1789.606 1.358019 0.0040779524
1790.57 1.358251 0.0040559685
1791.534 1.358482 0.0040412466
1792.499 1.358711 0.004019062
1793.463 1.358939 0.0039967541
1794.427 1.359165 0.0039818133
1795.391 1.359389 0.0039668158
1796.355 1.359612 0.0039517614
1797.32 1.359834 0.0039290716
1798.284 1.360054 0.0039138719
1799.248 1.360272 0.0038986132
1800.212 1.360489 0.0038756123
1801.177 1.360705 0.0038602022
1802.141 1.360919 0.0038447303
1803.105 1.361132 0.0038291961
1804.069 1.361343 0.0038135985
1805.033 1.361553 0.0037979367
1805.998 1.361762 0.0037822104
1806.962 1.36197 0.0037584971
1807.926 1.362176 0.0037505594
1808.89 1.362381 0.003742605
1809.855 1.362584 0.0037186393
1810.819 1.362787 0.0037025758
1811.783 1.362988 0.003694518
1812.747 1.363188 0.0036783493
1813.712 1.363387 0.0036702384
1814.676 1.363585 0.0036539624
1815.64 1.363781 0.0036376135
1816.604 1.363977 0.0036294113
1817.568 1.364171 0.0036129514
1818.533 1.364364 0.003596416
1819.497 1.364556 0.0035798042
1820.461 1.364747 0.0035714693
1821.425 1.364937 0.0035547412
1822.39 1.365126 0.0035463474
1823.354 1.365314 0.0035295
1824.318 1.365501 0.003512572
1825.282 1.365687 0.003512572
1826.246 1.365872 0.0034955619
1827.211 1.366055 0.0034870256
1828.175 1.366238 0.0034698902
1829.139 1.36642 0.0034612908
1830.103 1.366601 0.0034440274
1831.068 1.366781 0.0034353631
1832.032 1.36696 0.0034179688
1832.996 1.367138 0.0034092383
1833.96 1.367316 0.0034004855
1834.925 1.367492 0.0033917099
1835.889 1.367668 0.0033740907
1836.853 1.367842 0.0033652463
1837.817 1.368016 0.0033563788
1838.781 1.368189 0.0033474877
1839.746 1.368361 0.0033385728
1840.71 1.368532 0.0033206716
1841.674 1.368702 0.0033116846
1842.638 1.368872 0.0033026731
1843.603 1.36904 0.0032936372
1844.567 1.369208 0.0032845761
1845.531 1.369376 0.0032754901
1846.495 1.369542 0.0032572423
1847.459 1.369707 0.0032480797
1848.424 1.369872 0.0032480797
1849.388 1.370036 0.003229677
1850.352 1.3702 0.0032204359
1851.316 1.370362 0.0032111686
1852.281 1.370524 0.0032018742
1853.245 1.370685 0.0031925528
1854.209 1.370845 0.0031832042
1855.173 1.371005 0.0031738281
1856.137 1.371164 0.0031644241
1857.102 1.371322 0.0031549921
1858.066 1.37148 0.003145532
1859.03 1.371636 0.0031360432
1859.995 1.371793 0.0031265256
1860.959 1.371948 0.0031169788
1861.923 1.372103 0.0031074029
1862.887 1.372257 0.0031074029
1863.851 1.372411 0.0030881618
1864.816 1.372563 0.0030881618
1865.78 1.372715 0.0030784961
1866.744 1.372867 0.0030688001
1867.708 1.373018 0.0030590734
1868.672 1.373168 0.0030493154
1869.637 1.373318 0.0030395263
1870.601 1.373467 0.0030297055
1871.565 1.373616 0.0030297055
1872.529 1.373763 0.0030198528
1873.494 1.373911 0.0030099677
1874.458 1.374057 0.0030000503
1875.422 1.374203 0.0029900998
1876.386 1.374349 0.0029801161
1877.35 1.374494 0.0029801161
1878.315 1.374638 0.002970099
1879.279 1.374782 0.0029600477
1880.243 1.374925 0.0029499624
1881.208 1.375068 0.0029398424
1882.172 1.37521 0.0029398424
1883.136 1.375351 0.0029296875
1884.1 1.375492 0.0029194972
1885.064 1.375633 0.0029092713
1886.029 1.375773 0.0029092713
1886.993 1.375912 0.0028990093
1887.957 1.376051 0.0028990093
1888.921 1.376189 0.0028887109
1889.885 1.376327 0.0028783756
1890.85 1.376464 0.002868003
1891.814 1.376601 0.002868003
1892.778 1.376738 0.0028575927
1893.742 1.376873 0.0028471444
1894.707 1.377009 0.0028366577
1895.671 1.377144 0.0028366577
1896.635 1.377278 0.0028366577
1897.599 1.377412 0.0028261321
1898.563 1.377545 0.002815567
1899.528 1.377678 0.0028049622
1900.492 1.37781 0.0028049622
1901.456 1.377942 0.0027943172
1902.421 1.378074 0.0027943172
1903.385 1.378205 0.0027836314
1904.349 1.378335 0.0027836314
1905.313 1.378465 0.0027729045
1906.277 1.378595 0.0027729045
1907.242 1.378724 0.002751325
1908.206 1.378853 0.002751325
1909.17 1.378981 0.0027404716
1910.134 1.379109 0.0027404716
1911.099 1.379237 0.0027295751
1912.063 1.379364 0.0027295751
1913.027 1.37949 0.0027186349
1913.991 1.379616 0.0027076504
1914.955 1.379742 0.0027076504
1915.92 1.379867 0.0026966212
1916.884 1.379992 0.0026966212
1917.848 1.380117 0.0026855469
1918.812 1.380241 0.0026855469
1919.776 1.380364 0.0026744267
1920.741 1.380488 0.0026632599
1921.705 1.38061 0.0026632599
1922.669 1.380733 0.0026632599
1923.634 1.380855 0.002652046
1924.598 1.380976 0.0026407847
1925.562 1.381098 0.0026407847
1926.526 1.381219 0.002629475
1927.49 1.381339 0.002629475
1928.455 1.381459 0.0026181166
1929.419 1.381579 0.0026181166
1930.383 1.381698 0.0026181166
1931.347 1.381817 0.0026067086
1932.312 1.381936 0.0026067086
1933.276 1.382054 0.0025952505
1934.24 1.382172 0.0025952505
1935.204 1.382289 0.0025837414
1936.168 1.382406 0.0025721812
1937.133 1.382523 0.0025837414
1938.097 1.382639 0.0025721812
1939.061 1.382755 0.0025605685
1940.025 1.382871 0.0025605685
1940.99 1.382986 0.002548903
1941.954 1.383101 0.002548903
1942.918 1.383216 0.0025371837
1943.882 1.38333 0.0025371837
1944.847 1.383444 0.0025371837
1945.811 1.383558 0.0025254101
1946.775 1.383671 0.0025135817
1947.739 1.383784 0.0025135817
1948.703 1.383896 0.0025135817
1949.668 1.384009 0.0025135817
1950.632 1.384121 0.002501697
1951.596 1.384232 0.0024897556
1952.56 1.384344 0.0024897556
1953.525 1.384454 0.0024897556
1954.489 1.384565 0.0024777567
1955.453 1.384675 0.0024777567
1956.417 1.384785 0.0024777567
1957.381 1.384895 0.0024656993
1958.346 1.385004 0.0024656993
1959.31 1.385113 0.0024535828
1960.274 1.385222 0.0024535828
1961.238 1.38533 0.0024535828
1962.203 1.385439 0.0024414062
1963.167 1.385546 0.0024291684
1964.131 1.385654 0.0024414062
1965.095 1.385761 0.0024291684
1966.059 1.385868 0.0024168689
1967.024 1.385975 0.0024168689
1967.988 1.386081 0.0024168689
1968.952 1.386187 0.0024045063
1969.916 1.386293 0.0024045063
1970.881 1.386398 0.0024045063
1971.845 1.386503 0.0023920799
1972.809 1.386608 0.0023920799
1973.773 1.386713 0.0023920799
1974.738 1.386817 0.0023795885
1975.702 1.386921 0.0023795885
1976.666 1.387025 0.0023795885
1977.63 1.387128 0.0023670313
1978.594 1.387231 0.0023670313
1979.559 1.387334 0.002354407
1980.523 1.387437 0.002354407
1981.487 1.387539 0.002354407
1982.451 1.387641 0.0023417147
1983.416 1.387743 0.0023417147
1984.38 1.387844 0.0023417147
1985.344 1.387946 0.0023289532
1986.308 1.388047 0.0023289532
1987.272 1.388147 0.0023289532
1988.237 1.388248 0.0023161212
1989.201 1.388348 0.0023161212
1990.165 1.388448 0.0023161212
1991.129 1.388548 0.0023161212
1992.094 1.388647 0.002303218
1993.058 1.388746 0.002303218
1994.022 1.388845 0.002303218
1994.986 1.388944 0.0022902421
1995.95 1.389042 0.0022902421
1996.915 1.38914 0.0022902421
1997.879 1.389238 0.0022771922
1998.843 1.389336 0.0022771922
1999.807 1.389433 0.0022640671
2000.772 1.38953 0.0022640671
2001.736 1.389627 0.0022640671
2002.7 1.389724 0.0022640671
2003.664 1.38982 0.0022508653
2004.629 1.389917 0.0022640671
2005.593 1.390013 0.0022508653
2006.557 1.390108 0.0022508653
2007.521 1.390204 0.0022375858
2008.485 1.390299 0.0022375858
2009.45 1.390394 0.0022375858
2010.414 1.390489 0.0022375858
2011.378 1.390583 0.0022242269
2012.342 1.390678 0.0022242269
2013.307 1.390772 0.0022242269
2014.271 1.390866 0.0022107875
2015.235 1.390959 0.0022107875
2016.199 1.391053 0.0022107875
2017.163 1.391146 0.0022107875
2018.128 1.391239 0.0021972656
2019.092 1.391332 0.0021972656
2020.056 1.391424 0.0021972656
2021.02 1.391516 0.0021836602
2021.985 1.391608 0.0021836602
2022.949 1.3917 0.0021836602
2023.913 1.391792 0.0021836602
2024.877 1.391883 0.0021836602
2025.842 1.391975 0.0021699693
2026.806 1.392066 0.0021699693
2027.77 1.392157 0.0021699693
2028.734 1.392247 0.0021699693
2029.698 1.392337 0.0021561915
2030.663 1.392428 0.0021561915
2031.627 1.392518 0.0021561915
2032.591 1.392607 0.0021423253
2033.555 1.392697 0.0021423253
2034.52 1.392786 0.0021423253
2035.484 1.392875 0.0021423253
2036.448 1.392964 0.0021423253
2037.412 1.393053 0.0021283687
2038.376 1.393142 0.0021283687
2039.341 1.39323 0.0021283687
2040.305 1.393318 0.0021283687
2041.269 1.393406 0.0021143199
2042.233 1.393494 0.0021143199
2043.198 1.393581 0.0021143199
2044.162 1.393669 0.0021143199
2045.126 1.393756 0.0021143199
2046.09 1.393843 0.0021001771
2047.054 1.39393 0.0021001771
2048.019 1.394016 0.0020859384
2048.983 1.394103 0.0021001771
2049.947 1.394189 0.0020859384
2050.912 1.394275 0.0020859384
2051.876 1.394361 0.0020859384
2052.84 1.394446 0.0020859384
2053.804 1.394532 0.0020859384
2054.768 1.394617 0.0020859384
2055.733 1.394702 0.0020716018
2056.697 1.394787 0.0020716018
2057.661 1.394872 0.0020716018
2058.625 1.394956 0.0020716018
2059.59 1.395041 0.0020571654
2060.554 1.395125 0.0020571654
2061.518 1.395209 0.0020571654
2062.482 1.395293 0.002042627
2063.446 1.395376 0.002042627
2064.411 1.39546 0.002042627
2065.375 1.395543 0.002042627
2066.339 1.395626 0.002042627
2067.303 1.395709 0.002042627
2068.268 1.395792 0.0020279842
2069.232 1.395874 0.0020279842
2070.196 1.395957 0.0020279842
2071.16 1.396039 0.0020279842
2072.125 1.396121 0.0020279842
2073.089 1.396203 0.0020132351
2074.053 1.396285 0.0020132351
2075.017 1.396366 0.0020132351
2075.981 1.396448 0.0020132351
2076.946 1.396529 0.0020132351
2077.91 1.39661 0.0020132351
2078.874 1.396691 0.001998377
2079.838 1.396772 0.001998377
2080.802 1.396852 0.001998377
2081.767 1.396933 0.001998377
2082.731 1.397013 0.001998377
2083.695 1.397093 0.0019834079
2084.659 1.397173 0.0019834079
2085.624 1.397253 0.0019834079
2086.588 1.397333 0.0019834079
2087.552 1.397412 0.0019834079
2088.516 1.397491 0.0019834079
2089.48 1.39757 0.0019834079
2090.445 1.397649 0.0019683247
2091.409 1.397728 0.0019683247
2092.373 1.397807 0.0019683247
2093.337 1.397885 0.001953125
2094.302 1.397964 0.001953125
2095.266 1.398042 0.001953125
2096.23 1.39812 0.001953125
2097.194 1.398198 0.001953125
2098.159 1.398276 0.001953125
2099.123 1.398353 0.0019378061
2100.087 1.398431 0.001953125
2101.051 1.398508 0.0019378061
2102.015 1.398585 0.0019378061
2102.98 1.398662 0.0019378061
2103.944 1.398739 0.0019378061
2104.908 1.398816 0.0019223652
2105.872 1.398893 0.0019378061
2106.837 1.398969 0.0019223652
2107.801 1.399045 0.0019223652
2108.765 1.399122 0.0019223652
2109.729 1.399198 0.0019223652
2110.694 1.399274 0.0019223652
2111.658 1.399349 0.0019067993
2112.622 1.399425 0.0019067993
2113.586 1.3995 0.0019067993
2114.551 1.399575 0.0019067993
2115.515 1.399651 0.0019067993
2116.479 1.399726 0.0019067993
2117.443 1.399801 0.0019067993
2118.407 1.399875 0.0018911052
2119.372 1.39995 0.0018911052
2120.336 1.400024 0.0018911052
2121.3 1.400099 0.0018911052
2122.264 1.400173 0.0018752797
2123.229 1.400247 0.0018911052
2124.193 1.400321 0.0018911052
2125.157 1.400395 0.0018911052
2126.121 1.400468 0.0018752797
2127.085 1.400542 0.0018752797
2128.05 1.400615 0.0018752797
2129.014 1.400689 0.0018593196
2129.978 1.400762 0.0018752797
2130.942 1.400835 0.0018593196
2131.906 1.400908 0.0018752797
2132.871 1.400981 0.0018593196
2133.835 1.401053 0.0018593196
2134.799 1.401126 0.0018593196
2135.763 1.401198 0.0018593196
2136.728 1.40127 0.0018593196
2137.692 1.401343 0.0018432213
2138.656 1.401415 0.0018432213
2139.62 1.401486 0.0018432213
2140.585 1.401558 0.0018432213
2141.549 1.40163 0.0018432213
2142.513 1.401701 0.0018432213
2143.477 1.401773 0.0018432213
2144.441 1.401844 0.0018269812
2145.406 1.401915 0.0018269812
2146.37 1.401986 0.0018269812
2147.334 1.402057 0.0018269812
2148.298 1.402128 0.0018269812
2149.263 1.402198 0.0018269812
2150.227 1.402269 0.0018269812
2151.191 1.402339 0.0018269812
2152.155 1.40241 0.0018269812
2153.119 1.40248 0.0018105953
2154.084 1.40255 0.0018105953
2155.048 1.40262 0.0018105953
2156.012 1.40269 0.0018269812
2156.977 1.402759 0.0018105953
2157.941 1.402829 0.0018105953
2158.905 1.402899 0.0018105953
2159.869 1.402968 0.0018105953
2160.833 1.403037 0.0018105953
2161.798 1.403106 0.0017940599
2162.762 1.403175 0.0017940599
2163.726 1.403244 0.0017940599
2164.69 1.403313 0.0017940599
2165.655 1.403382 0.0018105953
2166.619 1.40345 0.0017940599
2167.583 1.403519 0.0017940599
2168.547 1.403587 0.0017940599
2169.511 1.403656 0.0017940599
2170.476 1.403724 0.0017773706
2171.44 1.403792 0.0017773706
2172.404 1.40386 0.0017773706
2173.368 1.403927 0.0017773706
2174.333 1.403995 0.0017773706
2175.297 1.404063 0.0017773706
2176.261 1.40413 0.0017773706
2177.225 1.404198 0.0017773706
2178.189 1.404265 0.0017773706
2179.154 1.404332 0.0017773706
2180.118 1.404399 0.0017605231
2181.082 1.404466 0.0017605231
2182.046 1.404533 0.0017605231
2183.01 1.4046 0.0017605231
2183.975 1.404667 0.0017605231
2184.939 1.404733 0.0017605231
2185.903 1.4048 0.0017605231
2186.867 1.404866 0.0017605231
2187.832 1.404932 0.0017605231
2188.796 1.404998 0.0017605231
2189.76 1.405064 0.0017605231
2190.724 1.40513 0.0017435128
2191.689 1.405196 0.0017435128
2192.653 1.405262 0.0017435128
2193.617 1.405328 0.0017435128
2194.581 1.405393 0.0017435128
2195.546 1.405459 0.0017435128
2196.51 1.405524 0.0017435128
2197.474 1.405589 0.0017435128
2198.438 1.405655 0.0017435128
2199.403 1.40572 0.0017435128
2200.367 1.405785 0.0017263349
2201.331 1.40585 0.0017263349
2202.295 1.405914 0.0017263349
2203.26 1.405979 0.0017263349
2204.224 1.406044 0.0017263349
2205.188 1.406108 0.0017263349
2206.152 1.406173 0.0017263349
2207.116 1.406237 0.0017263349
2208.081 1.406301 0.0017263349
2209.045 1.406365 0.0017263349
2210.009 1.406429 0.0017263349
2210.973 1.406493 0.0017263349
2211.938 1.406557 0.0017263349
2212.902 1.406621 0.0017089844
2213.866 1.406685 0.0017089844
2214.83 1.406748 0.0017089844
2215.794 1.406812 0.0017089844
2216.759 1.406875 0.0017089844
2217.723 1.406938 0.0017089844
2218.687 1.407002 0.0017089844
2219.651 1.407065 0.0017089844
2220.615 1.407128 0.0017089844
2221.58 1.407191 0.0016914558
2222.544 1.407254 0.0017089844
2223.508 1.407317 0.0017089844
2224.472 1.407379 0.0016914558
2225.437 1.407442 0.0016914558
2226.401 1.407504 0.0016914558
2227.365 1.407567 0.0016914558
2228.329 1.407629 0.0016914558
2229.293 1.407692 0.0016914558
2230.258 1.407754 0.0016914558
2231.222 1.407816 0.0016914558
2232.186 1.407878 0.0016737438
2233.15 1.40794 0.0016737438
2234.115 1.408002 0.0016737438
2235.079 1.408064 0.0016737438
2236.043 1.408125 0.0016914558
2237.007 1.408187 0.0016737438
2237.972 1.408249 0.0016737438
2238.936 1.40831 0.0016737438
2239.9 1.408371 0.0016737438
2240.864 1.408433 0.0016737438
2241.829 1.408494 0.0016737438
2242.793 1.408555 0.0016737438
2243.757 1.408616 0.0016737438
2244.721 1.408677 0.0016737438
2245.685 1.408738 0.0016558423
2246.65 1.408799 0.0016558423
2247.614 1.40886 0.0016737438
2248.578 1.40892 0.0016558423
2249.542 1.408981 0.0016558423
2250.507 1.409041 0.0016737438
2251.471 1.409102 0.0016558423
2252.435 1.409162 0.0016558423
2253.399 1.409222 0.0016558423
2254.363 1.409283 0.0016558423
2255.328 1.409343 0.0016558423
2256.292 1.409403 0.0016558423
2257.256 1.409463 0.0016558423
2258.22 1.409523 0.0016558423
2259.185 1.409583 0.0016558423
2260.149 1.409643 0.0016558423
2261.113 1.409702 0.0016377451
2262.077 1.409762 0.0016377451
2263.042 1.409821 0.0016377451
2264.006 1.409881 0.0016377451
2264.97 1.40994 0.0016377451
2265.934 1.41 0.0016377451
2266.898 1.410059 0.0016377451
2267.863 1.410118 0.0016377451
2268.827 1.410177 0.0016377451
2269.791 1.410236 0.0016377451
2270.755 1.410295 0.0016377451
2271.719 1.410354 0.0016377451
2272.684 1.410413 0.0016377451
2273.648 1.410472 0.0016377451
2274.612 1.410531 0.0016377451
2275.576 1.410589 0.0016377451
2276.541 1.410648 0.0016377451
2277.505 1.410706 0.0016377451
2278.469 1.410765 0.0016194457
2279.433 1.410823 0.0016194457
2280.398 1.410881 0.0016194457
2281.362 1.41094 0.0016194457
2282.326 1.410998 0.0016194457
2283.29 1.411056 0.0016194457
2284.254 1.411114 0.0016194457
2285.219 1.411172 0.0016194457
2286.183 1.41123 0.0016194457
2287.147 1.411288 0.0016194457
2288.111 1.411346 0.0016194457
2289.076 1.411403 0.0016194457
2290.04 1.411461 0.0016194457
2291.004 1.411518 0.0016009371
2291.968 1.411576 0.0016194457
2292.933 1.411633 0.0016194457
2293.897 1.411691 0.0016194457
2294.861 1.411748 0.0016194457
2295.825 1.411806 0.0016009371
2296.789 1.411863 0.0016194457
2297.754 1.41192 0.0016009371
2298.718 1.411977 0.0016009371
2299.682 1.412034 0.0016009371
2300.646 1.412091 0.0016009371
2301.611 1.412148 0.0016009371
2302.575 1.412205 0.0016009371
2303.539 1.412262 0.0016009371
2304.503 1.412318 0.0016009371
2305.468 1.412375 0.0016009371
2306.432 1.412432 0.0016009371
2307.396 1.412488 0.0016009371
2308.36 1.412545 0.0016009371
2309.324 1.412601 0.001582212
2310.289 1.412657 0.001582212
2311.253 1.412714 0.001582212
2312.217 1.41277 0.0016009371
2313.181 1.412826 0.0016009371
2314.146 1.412882 0.001582212
2315.11 1.412938 0.0016009371
2316.074 1.412995 0.0016009371
2317.038 1.413051 0.001582212
2318.002 1.413106 0.001582212
2318.967 1.413162 0.0016009371
2319.931 1.413218 0.001582212
2320.895 1.413274 0.0016009371
2321.859 1.41333 0.001582212
2322.823 1.413385 0.001582212
2323.788 1.413441 0.001582212
2324.752 1.413496 0.001582212
2325.716 1.413552 0.001582212
2326.68 1.413607 0.001582212
2327.645 1.413663 0.001582212
2328.609 1.413718 0.001582212
2329.573 1.413773 0.001582212
2330.537 1.413829 0.001582212
2331.502 1.413884 0.001582212
2332.466 1.413939 0.001582212
2333.43 1.413994 0.001582212
2334.394 1.414049 0.001582212
2335.358 1.414104 0.0015632628
2336.323 1.414159 0.0015632628
2337.287 1.414214 0.001582212
2338.251 1.414268 0.001582212
2339.215 1.414323 0.001582212
2340.18 1.414378 0.001582212
2341.144 1.414433 0.001582212
2342.108 1.414487 0.001582212
2343.072 1.414542 0.001582212
2344.037 1.414596 0.0015440809
2345.001 1.414651 0.0015440809
2345.965 1.414705 0.0015440809
2346.929 1.41476 0.0015440809
2347.894 1.414814 0.0015440809
2348.858 1.414868 0.0015440809
2349.822 1.414923 0.0015440809
2350.786 1.414977 0.001582212
2351.75 1.415031 0.0015440809
2352.715 1.415085 0.001582212
2353.679 1.415139 0.0015440809
2354.643 1.415193 0.0015440809
2355.607 1.415247 0.001582212
2356.572 1.415301 0.001582212
2357.536 1.415355 0.001582212
2358.5 1.415409 0.0015440809
2359.464 1.415462 0.0015440809
2360.428 1.415516 0.0015440809
2361.393 1.41557 0.001582212
2362.357 1.415624 0.0015440809
2363.321 1.415677 0.0015440809
2364.285 1.415731 0.001582212
2365.25 1.415784 0.0015440809
2366.214 1.415838 0.0015440809
2367.178 1.415891 0.0015440809
2368.142 1.415945 0.0015440809
2369.106 1.415998 0.0015440809
2370.071 1.416051 0.001582212
2371.035 1.416105 0.0015440809
2371.999 1.416158 0.0015440809
2372.963 1.416211 0.0015440809
2373.927 1.416264 0.001582212
2374.892 1.416317 0.0015440809
2375.856 1.41637 0.0015440809
2376.82 1.416423 0.0015440809
2377.784 1.416476 0.0015440809
2378.749 1.416529 0.0015440809
2379.713 1.416582 0.0015440809
2380.677 1.416635 0.0015440809
2381.641 1.416688 0.001582212
2382.606 1.416741 0.0015440809
2383.57 1.416794 0.001582212
2384.534 1.416846 0.0015440809
2385.498 1.416899 0.0015440809
2386.463 1.416952 0.0015440809
2387.427 1.417004 0.0015440809
2388.391 1.417057 0.0015440809
2389.355 1.417109 0.0015440809
2390.32 1.417162 0.0015440809
2391.284 1.417214 0.0015440809
2392.248 1.417267 0.0015440809
2393.212 1.417319 0.0015440809
2394.177 1.417371 0.0015440809
2395.141 1.417424 0.0015440809
2396.105 1.417476 0.0015440809
2397.069 1.417528 0.0015440809
2398.033 1.41758 0.0015440809
2398.998 1.417633 0.0015440809
2399.962 1.417685 0.0015440809
2400.926 1.417737 0.0015440809
2401.89 1.417789 0.0015440809
2402.854 1.417841 0.0015440809
2403.819 1.417893 0.0015440809
2404.783 1.417945 0.0015440809
2405.747 1.417997 0.0015440809
2406.711 1.418049 0.0015440809
2407.676 1.418101 0.0015440809
2408.64 1.418153 0.0015440809
2409.604 1.418204 0.0015440809
2410.568 1.418256 0.0015440809
2411.532 1.418308 0.0015440809
2412.497 1.41836 0.0015440809
2413.461 1.418411 0.0015440809
2414.425 1.418463 0.0015440809
2415.389 1.418515 0.0015440809
2416.354 1.418566 0.0015440809
2417.318 1.418618 0.0015440809
2418.282 1.418669 0.0015440809
2419.246 1.418721 0.0015440809
2420.21 1.418772 0.0015440809
2421.175 1.418824 0.0015440809
2422.139 1.418875 0.0015440809
2423.103 1.418927 0.0015440809
2424.067 1.418978 0.0015440809
2425.031 1.419029 0.0015440809
2425.996 1.419081 0.0015440809
2426.96 1.419132 0.0015440809
2427.924 1.419183 0.0015440809
2428.889 1.419234 0.0015440809
2429.853 1.419286 0.0015440809
2430.817 1.419337 0.0015440809
2431.781 1.419388 0.0015440809
2432.746 1.419439 0.0015440809
2433.71 1.41949 0.0015440809
2434.674 1.419541 0.0015440809
2435.638 1.419592 0.0015440809
2436.602 1.419643 0.0015440809
2437.567 1.419694 0.0015440809
2438.531 1.419745 0.0015440809
2439.495 1.419796 0.0015440809
2440.459 1.419847 0.0015440809
2441.424 1.419898 0.0015440809
2442.388 1.419949 0.0015440809
2443.352 1.42 0.0015440809
2444.316 1.42005 0.0015440809
2445.281 1.420101 0.0015440809
2446.245 1.420152 0.0015440809
2447.209 1.420203 0.0015440809
2448.173 1.420254 0.0015440809
2449.137 1.420304 0.0015440809
2450.102 1.420355 0.0015440809
2451.066 1.420406 0.0015440809
2452.03 1.420456 0.0015440809
2452.994 1.420507 0.0015440809
2453.958 1.420557 0.0015440809
2454.923 1.420608 0.0015440809
2455.887 1.420659 0.0015440809
2456.851 1.420709 0.0015440809
2457.815 1.42076 0.0015440809
2458.78 1.42081 0.0015440809
2459.744 1.420861 0.0015440809
2460.708 1.420911 0.0015440809
2461.672 1.420961 0.0015440809
2462.636 1.421012 0.0015440809
2463.601 1.421062 0.0015440809
2464.565 1.421113 0.0015440809
2465.529 1.421163 0.0015440809
2466.493 1.421213 0.0015440809
2467.458 1.421264 0.0015440809
2468.422 1.421314 0.0015440809
2469.386 1.421364 0.0015440809
2470.35 1.421414 0.0015440809
2471.315 1.421465 0.0015440809
2472.279 1.421515 0.0015440809
2473.243 1.421565 0.0015440809
2474.207 1.421615 0.0015440809
2475.171 1.421666 0.0015440809
2476.136 1.421716 0.0015440809
2477.1 1.421766 0.0015440809
2478.064 1.421816 0.0015440809
2479.028 1.421866 0.0015440809
2479.993 1.421916 0.0015440809
2480.957 1.421966 0.0015440809
2481.921 1.422017 0.0015440809
2482.885 1.422067 0.0015440809
2483.85 1.422117 0.001582212
2484.814 1.422167 0.0015440809
2485.778 1.422217 0.0015440809
2486.742 1.422267 0.0015440809
2487.706 1.422317 0.0015440809
2488.671 1.422367 0.0015440809
2489.635 1.422417 0.0015440809
2490.599 1.422467 0.0015440809
2491.563 1.422516 0.0015440809
2492.528 1.422566 0.0015440809
2493.492 1.422616 0.0015440809
2494.456 1.422666 0.0015440809
2495.42 1.422716 0.0015440809
2496.385 1.422766 0.0015440809
2497.349 1.422816 0.0015440809
2498.313 1.422866 0.0015440809
2499.277 1.422916 0.0015440809
2500.241 1.422966 0.0015440809
2501.206 1.423015 0.0015440809
2502.17 1.423065 0.0015440809
2503.134 1.423115 0.0015440809
2504.098 1.423165 0.0015440809
2505.062 1.423215 0.0015440809
2506.027 1.423264 0.0015440809
2506.991 1.423314 0.0015440809
2507.955 1.423364 0.0015440809
2508.919 1.423414 0.0015440809
2509.884 1.423463 0.0015440809
2510.848 1.423513 0.0015440809
2511.812 1.423563 0.0015440809
2512.776 1.423613 0.0015440809
2513.74 1.423662 0.0015440809
2514.705 1.423712 0.0015440809
2515.669 1.423762 0.0015440809
2516.633 1.423811 0.0015440809
2517.597 1.423861 0.0015440809
2518.562 1.423911 0.0015440809
2519.526 1.42396 0.0015440809
2520.49 1.42401 0.001582212
2521.454 1.42406 0.001582212
2522.419 1.42411 0.001582212
2523.383 1.424159 0.001582212
2524.347 1.424209 0.001582212
2525.311 1.424259 0.001582212
2526.275 1.424308 0.001582212
2527.24 1.424358 0.001582212
2528.204 1.424407 0.001582212
2529.168 1.424457 0.001582212
2530.132 1.424507 0.001582212
2531.097 1.424556 0.001582212
2532.061 1.424606 0.001582212
2533.025 1.424656 0.001582212
2533.989 1.424705 0.001582212
2534.954 1.424755 0.001582212
2535.918 1.424805 0.001582212
2536.882 1.424854 0.001582212
2537.846 1.424904 0.0015440809
2538.811 1.424953 0.001582212
2539.775 1.425003 0.001582212
2540.739 1.425053 0.001582212
2541.703 1.425102 0.001582212
2542.667 1.425152 0.001582212
2543.632 1.425201 0.001582212
2544.596 1.425251 0.001582212
2545.56 1.425301 0.001582212
2546.524 1.42535 0.001582212
2547.489 1.4254 0.001582212
2548.453 1.425449 0.001582212
2549.417 1.425499 0.001582212
2550.381 1.425549 0.001582212
2551.345 1.425598 0.001582212
2552.31 1.425648 0.001582212
2553.274 1.425697 0.001582212
2554.238 1.425747 0.001582212
2555.202 1.425797 0.001582212
2556.167 1.425846 0.001582212
2557.131 1.425896 0.001582212
2558.095 1.425946 0.001582212
2559.059 1.425995 0.001582212
2560.023 1.426045 0.001582212
2560.988 1.426095 0.001582212
2561.952 1.426144 0.001582212
2562.916 1.426194 0.001582212
2563.88 1.426244 0.001582212
2564.844 1.426293 0.001582212
2565.809 1.426343 0.001582212
2566.773 1.426393 0.001582212
2567.737 1.426443 0.001582212
2568.701 1.426492 0.0016194457
2569.666 1.426542 0.0016194457
2570.63 1.426592 0.0016194457
2571.594 1.426641 0.0016194457
2572.558 1.426691 0.0016194457
2573.523 1.426741 0.0016194457
2574.487 1.42679 0.0016194457
2575.451 1.42684 0.001582212
2576.415 1.42689 0.0016194457
2577.38 1.42694 0.001582212
2578.344 1.42699 0.0016194457
2579.308 1.427039 0.0016194457
2580.272 1.427089 0.001582212
2581.237 1.427139 0.0016194457
2582.201 1.427189 0.0016194457
2583.165 1.427239 0.0016194457
2584.129 1.427288 0.001582212
2585.094 1.427338 0.0016194457
2586.058 1.427388 0.0016194457
2587.022 1.427438 0.0016194457
2587.986 1.427488 0.0016194457
2588.95 1.427538 0.0016194457
2589.915 1.427588 0.0016194457
2590.879 1.427638 0.0016194457
2591.843 1.427687 0.0016194457
2592.807 1.427737 0.0016194457
2593.771 1.427787 0.0016194457
2594.736 1.427837 0.0016194457
2595.7 1.427887 0.0016194457
2596.664 1.427937 0.0016194457
2597.628 1.427987 0.0016194457
2598.593 1.428037 0.0016194457
2599.557 1.428087 0.0016194457
2600.521 1.428137 0.0016194457
2601.485 1.428187 0.0016194457
2602.449 1.428238 0.0016558423
2603.414 1.428288 0.0016558423
2604.378 1.428338 0.0016558423
2605.342 1.428388 0.0016194457
2606.306 1.428438 0.0016194457
2607.271 1.428488 0.0016558423
2608.235 1.428538 0.0016194457
2609.199 1.428589 0.0016558423
2610.163 1.428639 0.0016194457
2611.127 1.428689 0.0016194457
2612.092 1.428739 0.0016558423
2613.056 1.42879 0.0016558423
2614.02 1.42884 0.0016558423
2614.984 1.42889 0.0016558423
2615.949 1.428941 0.0016558423
2616.913 1.428991 0.0016558423
2617.877 1.429041 0.0016558423
2618.841 1.429092 0.0016558423
2619.806 1.429142 0.0016558423
2620.77 1.429192 0.0016558423
2621.734 1.429243 0.0016558423
2622.698 1.429293 0.0016558423
2623.663 1.429344 0.0016558423
2624.627 1.429394 0.0016558423
2625.591 1.429445 0.0016914558
2626.555 1.429496 0.0016558423
2627.519 1.429546 0.0016558423
2628.484 1.429597 0.0016914558
2629.448 1.429647 0.0016914558
2630.412 1.429698 0.0016558423
2631.376 1.429749 0.0016558423
2632.341 1.429799 0.0016558423
2633.305 1.42985 0.0016558423
2634.269 1.429901 0.0016558423
2635.233 1.429952 0.0016558423
2636.198 1.430002 0.0016914558
2637.162 1.430053 0.0016914558
2638.126 1.430104 0.0016914558
2639.09 1.430155 0.0016914558
2640.054 1.430206 0.0016914558
2641.019 1.430257 0.0016914558
2641.983 1.430308 0.0016914558
2642.947 1.430359 0.0016914558
2643.911 1.43041 0.0016914558
2644.875 1.430461 0.0016914558
2645.84 1.430512 0.0016914558
2646.804 1.430563 0.0016914558
2647.768 1.430614 0.0017263349
2648.732 1.430665 0.0016914558
2649.697 1.430716 0.0016914558
2650.661 1.430768 0.0016914558
2651.625 1.430819 0.0016914558
2652.589 1.43087 0.0016914558
2653.553 1.430921 0.0016914558
2654.518 1.430973 0.0017263349
2655.482 1.431024 0.0016914558
2656.446 1.431075 0.0017263349
2657.41 1.431127 0.0017263349
2658.375 1.431178 0.0017263349
2659.339 1.43123 0.0017263349
2660.303 1.431281 0.0017263349
2661.267 1.431333 0.0017263349
2662.232 1.431384 0.0017263349
2663.196 1.431436 0.0017263349
2664.16 1.431488 0.0017263349
2665.124 1.431539 0.0017605231
2666.088 1.431591 0.0017263349
2667.053 1.431643 0.0017263349
2668.017 1.431695 0.0017263349
2668.981 1.431746 0.0017263349
2669.945 1.431798 0.0017263349
2670.91 1.43185 0.0017263349
2671.874 1.431902 0.0017605231
2672.838 1.431954 0.0017263349
2673.802 1.432006 0.0017605231
2674.767 1.432058 0.0017605231
2675.731 1.43211 0.0017605231
2676.695 1.432163 0.0017605231
2677.659 1.432215 0.0017605231
2678.623 1.432267 0.0017605231
2679.588 1.432319 0.0017605231
2680.552 1.432371 0.0017605231
2681.516 1.432424 0.0017605231
2682.48 1.432476 0.0017605231
2683.445 1.432528 0.0017605231
2684.409 1.432581 0.0017605231
2685.373 1.432633 0.0017605231
2686.337 1.432686 0.0017605231
2687.302 1.432739 0.0017605231
2688.266 1.432791 0.0017940599
2689.23 1.432844 0.0017940599
2690.194 1.432897 0.0017940599
2691.158 1.432949 0.0017940599
2692.123 1.433002 0.0017940599
2693.087 1.433055 0.0017940599
2694.051 1.433108 0.0017940599
2695.015 1.433161 0.0017940599
2695.979 1.433213 0.0017940599
2696.944 1.433267 0.0017940599
2697.908 1.43332 0.0017940599
2698.872 1.433373 0.0017940599
2699.836 1.433426 0.0017940599
2700.801 1.433479 0.0017940599
2701.765 1.433532 0.0017940599
2702.729 1.433586 0.0018269812
2703.693 1.433639 0.0018269812
2704.658 1.433692 0.0018269812
2705.622 1.433746 0.0018269812
2706.586 1.433799 0.0018269812
2707.55 1.433853 0.0018269812
2708.514 1.433906 0.0018269812
2709.479 1.43396 0.0018269812
2710.443 1.434014 0.0018269812
2711.407 1.434067 0.0018269812
2712.371 1.434121 0.0018269812
2713.336 1.434175 0.0018269812
2714.3 1.434229 0.0018269812
2715.264 1.434283 0.0018593196
2716.228 1.434337 0.0018593196
2717.192 1.434391 0.0018269812
2718.157 1.434445 0.0018593196
2719.121 1.434499 0.0018593196
2720.085 1.434554 0.0018593196
2721.049 1.434608 0.0018593196
2722.014 1.434662 0.0018593196
2722.978 1.434716 0.0018593196
2723.942 1.434771 0.0018593196
2724.906 1.434825 0.0018593196
2725.871 1.43488 0.0018593196
2726.835 1.434935 0.0018911052
2727.799 1.434989 0.0018593196
2728.763 1.435044 0.0018593196
2729.728 1.435099 0.0018911052
2730.692 1.435153 0.0018911052
2731.656 1.435208 0.0018911052
2732.62 1.435263 0.0018911052
2733.584 1.435318 0.0018911052
2734.549 1.435373 0.0018911052
2735.513 1.435429 0.0018911052
2736.477 1.435484 0.0018911052
2737.441 1.435539 0.0018911052
2738.406 1.435594 0.0019223652
2739.37 1.43565 0.0019223652
2740.334 1.435705 0.0019223652
2741.298 1.435761 0.0019223652
2742.262 1.435816 0.0019223652
2743.227 1.435872 0.0019223652
2744.191 1.435928 0.0019223652
2745.155 1.435983 0.0019223652
2746.119 1.436039 0.0019223652
2747.083 1.436095 0.001953125
2748.048 1.436151 0.001953125
2749.012 1.436207 0.0019223652
2749.976 1.436263 0.001953125
2750.94 1.43632 0.0019223652
2751.905 1.436376 0.001953125
2752.869 1.436432 0.001953125
2753.833 1.436489 0.001953125
2754.797 1.436545 0.001953125
2755.762 1.436602 0.0019834079
2756.726 1.436658 0.001953125
2757.69 1.436715 0.001953125
2758.654 1.436772 0.001953125
2759.618 1.436828 0.001953125
2760.583 1.436885 0.0019834079
2761.547 1.436942 0.0019834079
2762.511 1.436999 0.0019834079
2763.475 1.437056 0.0019834079
2764.44 1.437114 0.0019834079
2765.404 1.437171 0.0019834079
2766.368 1.437228 0.0020132351
2767.332 1.437286 0.0019834079
2768.297 1.437343 0.0020132351
2769.261 1.437401 0.0020132351
2770.225 1.437458 0.0020132351
2771.189 1.437516 0.0020132351
2772.154 1.437574 0.0020132351
2773.118 1.437632 0.002042627
2774.082 1.43769 0.0020132351
2775.046 1.437748 0.0020132351
2776.01 1.437806 0.0020132351
2776.975 1.437864 0.002042627
2777.939 1.437922 0.002042627
2778.903 1.437981 0.002042627
2779.867 1.438039 0.002042627
2780.832 1.438098 0.002042627
2781.796 1.438156 0.002042627
2782.76 1.438215 0.002042627
2783.724 1.438274 0.0020716018
2784.688 1.438333 0.0020716018
2785.653 1.438392 0.0020716018
2786.617 1.438451 0.0020716018
2787.581 1.43851 0.0020716018
2788.545 1.438569 0.0020716018
2789.51 1.438628 0.0020716018
2790.474 1.438688 0.0020716018
2791.438 1.438747 0.0021001771
2792.402 1.438807 0.0021001771
2793.366 1.438866 0.0021001771
2794.331 1.438926 0.0021001771
2795.295 1.438986 0.0021001771
2796.259 1.439046 0.0021001771
2797.223 1.439106 0.0021001771
2798.188 1.439166 0.0021283687
2799.152 1.439227 0.0021283687
2800.116 1.439287 0.0021283687
2801.08 1.439347 0.0021283687
2802.044 1.439408 0.0021283687
2803.009 1.439468 0.0021283687
2803.973 1.439529 0.0021561915
2804.937 1.43959 0.0021561915
2805.901 1.439651 0.0021283687
2806.866 1.439712 0.0021561915
2807.83 1.439773 0.0021561915
2808.794 1.439834 0.0021561915
2809.758 1.439896 0.0021561915
2810.723 1.439957 0.0021561915
2811.687 1.440018 0.0021836602
2812.651 1.44008 0.0021836602
2813.615 1.440142 0.0021836602
2814.58 1.440204 0.0021836602
2815.544 1.440265 0.0021836602
2816.508 1.440327 0.0022107875
2817.472 1.44039 0.0022107875
2818.436 1.440452 0.0021836602
2819.401 1.440514 0.0022107875
2820.365 1.440577 0.0022107875
2821.329 1.440639 0.0022107875
2822.293 1.440702 0.0022107875
2823.258 1.440765 0.0022375858
2824.222 1.440827 0.0022375858
2825.186 1.440891 0.0022375858
2826.15 1.440954 0.0022375858
2827.115 1.441017 0.0022375858
2828.079 1.44108 0.0022640671
2829.043 1.441144 0.0022640671
2830.007 1.441207 0.0022640671
2830.971 1.441271 0.0022640671
2831.936 1.441335 0.0022640671
2832.9 1.441399 0.0022640671
2833.864 1.441463 0.0022640671
2834.828 1.441527 0.0022902421
2835.792 1.441591 0.0022902421
2836.757 1.441656 0.0022902421
2837.721 1.44172 0.0022902421
2838.685 1.441785 0.0022902421
2839.649 1.441849 0.0023161212
2840.614 1.441914 0.0023161212
2841.578 1.441979 0.0023161212
2842.542 1.442044 0.0023161212
2843.506 1.44211 0.0023161212
2844.47 1.442175 0.0023417147
2845.435 1.442241 0.0023161212
2846.399 1.442306 0.0023417147
2847.363 1.442372 0.0023417147
2848.327 1.442438 0.0023670313
2849.292 1.442504 0.0023670313
2850.256 1.44257 0.0023670313
2851.22 1.442636 0.0023670313
2852.184 1.442703 0.0023670313
2853.149 1.442769 0.0023670313
2854.113 1.442836 0.0023670313
2855.077 1.442903 0.0023920799
2856.041 1.44297 0.0023920799
2857.006 1.443037 0.0024168689
2857.97 1.443104 0.0024168689
2858.934 1.443172 0.0024168689
2859.898 1.443239 0.0024168689
2860.862 1.443307 0.0024168689
2861.827 1.443374 0.0024168689
2862.791 1.443442 0.0024414062
2863.755 1.44351 0.0024414062
2864.719 1.443579 0.0024414062
2865.684 1.443647 0.0024656993
2866.648 1.443715 0.0024656993
2867.612 1.443784 0.0024656993
2868.576 1.443853 0.0024656993
2869.54 1.443922 0.0024656993
2870.505 1.443991 0.0024897556
2871.469 1.44406 0.0024897556
2872.433 1.44413 0.0024897556
2873.397 1.444199 0.0024897556
2874.362 1.444269 0.0025135817
2875.326 1.444339 0.0025135817
2876.29 1.444409 0.0025135817
2877.254 1.444479 0.0025371837
2878.219 1.444549 0.0025371837
2879.183 1.44462 0.0025371837
2880.147 1.44469 0.0025371837
2881.111 1.444761 0.0025605685
2882.075 1.444832 0.0025605685
2883.04 1.444903 0.0025605685
2884.004 1.444974 0.0025837414
2884.968 1.445046 0.0025837414
2885.932 1.445117 0.0025837414
2886.896 1.445189 0.0025837414
2887.861 1.445261 0.0026067086
2888.825 1.445333 0.0026067086
2889.789 1.445405 0.0026067086
2890.753 1.445478 0.002629475
2891.718 1.44555 0.002629475
2892.682 1.445623 0.002629475
2893.646 1.445696 0.002629475
2894.61 1.445769 0.002652046
2895.575 1.445842 0.002652046
2896.539 1.445916 0.002652046
2897.503 1.445989 0.0026744267
2898.467 1.446063 0.0026744267
2899.431 1.446137 0.0026744267
2900.396 1.446212 0.0026966212
2901.36 1.446286 0.0026966212
2902.324 1.44636 0.0026966212
2903.288 1.446435 0.0027186349
2904.253 1.44651 0.0027186349
2905.217 1.446585 0.0027186349
2906.181 1.44666 0.0027404716
2907.145 1.446736 0.0027404716
2908.11 1.446812 0.0027404716
2909.074 1.446887 0.0027404716
2910.038 1.446963 0.0027621358
2911.002 1.44704 0.0027621358
2911.966 1.447116 0.0027621358
2912.931 1.447193 0.0027836314
2913.895 1.447269 0.0027836314
2914.859 1.447346 0.0028049622
2915.823 1.447424 0.0028049622
2916.788 1.447501 0.0028049622
2917.752 1.447579 0.0028261321
2918.716 1.447656 0.0028261321
2919.68 1.447734 0.0028471444
2920.645 1.447813 0.0028471444
2921.609 1.447891 0.0028471444
2922.573 1.44797 0.002868003
2923.537 1.448049 0.002868003
2924.501 1.448128 0.0028887109
2925.466 1.448207 0.0028887109
2926.43 1.448286 0.0028887109
2927.394 1.448366 0.0029092713
2928.358 1.448446 0.0029092713
2929.323 1.448526 0.0029092713
2930.287 1.448606 0.0029296875
2931.251 1.448687 0.0029499624
2932.215 1.448768 0.0029499624
2933.179 1.448849 0.0029499624
2934.144 1.44893 0.002970099
2935.108 1.449011 0.0029900998
2936.072 1.449093 0.0029900998
2937.036 1.449175 0.0029900998
2938 1.449257 0.0030099677
2938.965 1.449339 0.0030099677
2939.929 1.449422 0.0030297055
2940.893 1.449505 0.0030297055
2941.857 1.449588 0.0030493154
2942.822 1.449671 0.0030493154
2943.786 1.449755 0.0030688001
2944.75 1.449839 0.0030688001
2945.714 1.449923 0.0030881618
2946.679 1.450007 0.0030881618
2947.643 1.450091 0.0030881618
2948.607 1.450176 0.0031074029
2949.571 1.450261 0.0031074029
2950.535 1.450346 0.0031265256
2951.5 1.450432 0.0031265256
2952.464 1.450518 0.003145532
2953.428 1.450604 0.0031644241
2954.392 1.45069 0.0031644241
2955.357 1.450777 0.0031832042
2956.321 1.450863 0.0031832042
2957.285 1.45095 0.0032018742
2958.249 1.451038 0.0032018742
2959.214 1.451125 0.0032204359
2960.178 1.451213 0.0032388915
2961.142 1.451301 0.0032388915
2962.106 1.45139 0.0032388915
2963.071 1.451478 0.0032572423
2964.035 1.451567 0.0032754901
2964.999 1.451656 0.0032754901
2965.963 1.451746 0.0032936372
2966.927 1.451836 0.0033116846
2967.892 1.451926 0.0033116846
2968.856 1.452016 0.0033116846
2969.82 1.452107 0.0033296342
2970.784 1.452198 0.0033474877
2971.749 1.452289 0.0033474877
2972.713 1.45238 0.0033652463
2973.677 1.452472 0.0033829117
2974.641 1.452564 0.0034004855
2975.605 1.452657 0.0034004855
2976.57 1.452749 0.0034179688
2977.534 1.452842 0.0034353631
2978.498 1.452935 0.0034353631
2979.462 1.453029 0.0034526698
2980.427 1.453123 0.0034698902
2981.391 1.453217 0.0034698902
2982.355 1.453312 0.0034870256
2983.319 1.453407 0.0035040772
2984.283 1.453502 0.0035210461
2985.248 1.453597 0.0035210461
2986.212 1.453693 0.0035379338
2987.176 1.453789 0.0035379338
2988.14 1.453885 0.0035714693
2989.104 1.453982 0.0035714693
2990.069 1.454079 0.0035881198
2991.033 1.454177 0.0036046931
2991.997 1.454274 0.0036211906
2992.961 1.454373 0.0036211906
2993.926 1.454471 0.0036376135
2994.89 1.45457 0.0036539624
2995.854 1.454669 0.0036702384
2996.818 1.454768 0.0036864425
2997.783 1.454868 0.0036864425
2998.747 1.454968 0.0037025758
2999.711 1.455069 0.0037186393
3000.675 1.45517 0.0037346333
3001.64 1.455271 0.0037505594
3002.604 1.455372 0.0037664182
3003.568 1.455474 0.0037822104
3004.532 1.455577 0.0037979367
3005.497 1.455679 0.0037979367
3006.461 1.455782 0.0038135985
3007.425 1.455886 0.0038291961
3008.389 1.455989 0.0038602022
3009.354 1.456094 0.0038756123
3010.318 1.456198 0.0038756123
3011.282 1.456303 0.0038909612
3012.246 1.456409 0.00390625
3013.21 1.456514 0.003921479
3014.175 1.45662 0.0039366493
3015.139 1.456727 0.0039517614
3016.103 1.456834 0.0039818133
3017.067 1.456941 0.0039818133
3018.031 1.457049 0.0039967541
3018.996 1.457157 0.0040264702
3019.96 1.457265 0.0040264702
3020.924 1.457374 0.0040559685
3021.888 1.457484 0.0040706377
3022.853 1.457593 0.0040852539
3023.817 1.457704 0.0040998184
3024.781 1.457814 0.0041143307
3025.745 1.457925 0.0041287928
3026.709 1.458037 0.0041432036
3027.674 1.458149 0.0041718767
3028.638 1.458261 0.0041861399
3029.602 1.458374 0.0042003542
3030.566 1.458487 0.0042145206
3031.531 1.458601 0.0042286399
3032.495 1.458715 0.0042567374
3033.459 1.458829 0.0042707166
3034.423 1.458945 0.0042846506
3035.387 1.45906 0.004312383
3036.352 1.459176 0.0043261829
3037.316 1.459292 0.0043399385
3038.28 1.459409 0.0043673203
3039.244 1.459527 0.004380947
3040.209 1.459645 0.0044080736
3041.173 1.459763 0.004421575
3042.137 1.459882 0.0044350345
3043.101 1.460001 0.0044618328
3044.066 1.460121 0.0044751717
3045.03 1.460241 0.004488471
3045.994 1.460362 0.0045017307
3046.958 1.460483 0.0045412784
3047.923 1.460605 0.0045543844
3048.887 1.460728 0.0045804842
3049.851 1.46085 0.0045934785
3050.815 1.460974 0.0046193572
3051.779 1.461098 0.0046322425
3052.744 1.461222 0.0046579065
3053.708 1.461347 0.0046706852
3054.672 1.461473 0.0046961387
3055.636 1.461599 0.0047214548
3056.601 1.461725 0.0047466364
3057.565 1.461853 0.0047591771
3058.529 1.46198 0.0047841598
3059.493 1.462109 0.0048090126
3060.458 1.462237 0.0048337379
3061.422 1.462367 0.0048460532
3062.386 1.462497 0.0048705903
3063.35 1.462627 0.0048950044
3064.314 1.462759 0.0049192971
3065.279 1.46289 0.0049434709
3066.243 1.463023 0.004967527
3067.207 1.463156 0.0049795113
3068.171 1.463289 0.0050152927
3069.135 1.463423 0.0050390055
3070.1 1.463558 0.0050508203
3071.064 1.463693 0.0050861002
3072.028 1.463829 0.005097806
3072.992 1.463966 0.0051327627
3073.957 1.464103 0.0051559354
3074.921 1.464241 0.0051790047
3075.885 1.464379 0.0052019716
3076.849 1.464519 0.0052362331
3077.813 1.464658 0.0052476036
3078.778 1.464799 0.0052815694
3079.742 1.46494 0.0053040921
3080.706 1.465082 0.0053376979
3081.67 1.465224 0.0053599849
3082.635 1.465368 0.0053821797
3083.599 1.465511 0.0054153008
3084.563 1.465656 0.0054372698
3085.527 1.465801 0.0054700579
3086.492 1.465947 0.0054918076
3087.456 1.466094 0.0055242716
3088.42 1.466241 0.0055458089
3089.384 1.466389 0.0055779587
3090.348 1.466538 0.0056099244
3091.313 1.466688 0.0056311339
3092.277 1.466838 0.0056627993
3093.241 1.466989 0.0056942888
3094.205 1.467141 0.0057256049
3095.17 1.467293 0.0057567512
3096.134 1.467446 0.0057774219
3097.098 1.467601 0.0058082896
3098.062 1.467755 0.0058389944
3099.027 1.467911 0.0058796848
3099.991 1.468068 0.0059100189
3100.955 1.468225 0.005940198
3101.919 1.468383 0.0059702243
3102.883 1.468542 0.0060001006
3103.848 1.468701 0.0060397056
3104.812 1.468862 0.0060692397
3105.776 1.469023 0.0060986308
3106.74 1.469185 0.0061278809
3107.705 1.469349 0.0061666653
3108.669 1.469512 0.0061955946
3109.633 1.469677 0.0062339576
3110.597 1.469843 0.0062625757
3111.562 1.470009 0.0063005313
3112.526 1.470177 0.0063382592
3113.49 1.470345 0.006375764
3114.454 1.470515 0.0064130495
3115.418 1.470685 0.0064501194
3116.383 1.470856 0.006477783
3117.347 1.471028 0.0065144845
3118.311 1.471201 0.0065509803
3119.275 1.471375 0.0065963166
3120.24 1.471549 0.006632362
3121.204 1.471725 0.0066682128
3122.168 1.471902 0.0067038722
3123.132 1.47208 0.0067481813
3124.096 1.472259 0.0067834198
3125.061 1.472438 0.0068272124
3126.025 1.472619 0.0068620457
3126.989 1.472801 0.0069053397
3127.953 1.472984 0.006948364
3128.917 1.473168 0.0069911238
3129.882 1.473353 0.0070251441
3130.846 1.473539 0.0070674387
3131.81 1.473726 0.0071094823
3132.774 1.473914 0.0071596084
3133.739 1.474103 0.0072011137
3134.703 1.474294 0.0072423811
3135.667 1.474485 0.0072915941
3136.631 1.474678 0.0073323525
3137.596 1.474872 0.007372885
3138.56 1.475066 0.0074292598
3139.524 1.475262 0.0074692667
3140.488 1.47546 0.0075169941
3141.452 1.475658 0.0075644208
3142.417 1.475858 0.0076115513
3143.381 1.476058 0.0076583922
3144.345 1.476261 0.0077126804
3145.309 1.476464 0.0077589103
3146.274 1.476668 0.0078048669
3147.238 1.476874 0.0078581432
3148.202 1.477081 0.00791106
3149.166 1.477289 0.0079561379
3150.131 1.477499 0.0080084084
3151.095 1.47771 0.0080603389
3152.059 1.477922 0.0081192814
3153.023 1.478136 0.0081705078
3153.988 1.478351 0.0082214149
3154.952 1.478567 0.0082792118
3155.916 1.478784 0.0083294539
3156.88 1.479003 0.0083865058
3157.844 1.479224 0.0084431721
3158.809 1.479446 0.0084994603
3159.773 1.479669 0.0085623432
3160.737 1.479894 0.0086178528
3161.701 1.48012 0.008679877
3162.666 1.480347 0.0087346407
3163.63 1.480577 0.0087958416
3164.594 1.480807 0.0088566197
3165.558 1.481039 0.0089169834
3166.522 1.481273 0.0089769419
3167.487 1.481508 0.0090430956
3168.451 1.481745 0.0091022225
3169.415 1.481984 0.0091674719
3170.379 1.482224 0.0092322612
3171.344 1.482466 0.0093030073
3172.308 1.482709 0.0093668588
3173.272 1.482954 0.0094365962
3174.236 1.4832 0.0094995489
3175.2 1.483449 0.0095683197
3176.165 1.483699 0.0096427817
3177.129 1.483951 0.0097105382
3178.093 1.484204 0.009783918
3179.057 1.48446 0.0098567521
3180.021 1.484717 0.0099290526
3180.986 1.484976 0.01000083
3181.95 1.485237 0.010078011
3182.914 1.485499 0.010154607
3183.878 1.485764 0.010230629
3184.843 1.48603 0.010306089
3185.807 1.486299 0.010386742
3186.771 1.486569 0.010466773
3187.735 1.486841 0.010546197
3188.7 1.487115 0.010630636
3189.664 1.487392 0.010708844
3190.628 1.48767 0.01079201
3191.592 1.48795 0.01088002
3192.557 1.488233 0.010967323
3193.521 1.488517 0.011053937
3194.485 1.488804 0.011139877
3195.449 1.489093 0.011230469
3196.414 1.489384 0.011320335
3197.378 1.489677 0.011409493
3198.342 1.489972 0.011503143
3199.306 1.49027 0.011596037
3200.271 1.49057 0.011688192
3201.235 1.490872 0.011784686
3202.199 1.491177 0.011885411
3203.163 1.491484 0.011980317
3204.127 1.491793 0.012084344
3205.092 1.492105 0.012182592
3206.056 1.492419 0.012284908
3207.02 1.492736 0.012391189
3207.984 1.493055 0.012496566
3208.948 1.493377 0.012601063
3209.913 1.493702 0.012714079
3210.877 1.494029 0.012821451
3211.841 1.494358 0.012932542
3212.805 1.494691 0.013047255
3213.77 1.495026 0.013160969
3214.734 1.495363 0.013273709
3215.698 1.495704 0.013394401
3216.662 1.496047 0.013514016
3217.626 1.496393 0.013632582
3218.591 1.496742 0.013754459
3219.555 1.497095 0.013879561
3220.519 1.49745 0.014007801
3221.483 1.497808 0.014134877
3222.448 1.498169 0.014265001
3223.412 1.498533 0.014398089
3224.376 1.4989 0.014529957
3225.34 1.49927 0.014664705
3226.304 1.499644 0.014802252
3227.269 1.500021 0.014942523
3228.233 1.500401 0.015081489
3229.197 1.500784 0.015227018
3230.161 1.501171 0.015375045
3231.126 1.501561 0.015521661
3232.09 1.501955 0.015670709
3233.054 1.502352 0.01582212
3234.018 1.502752 0.015979558
3234.983 1.503157 0.01613546
3235.947 1.503565 0.016297188
3236.911 1.503976 0.016460946
3237.875 1.504392 0.016623091
3238.84 1.504811 0.01679077
3239.804 1.505234 0.016960308
3240.768 1.505661 0.017135125
3241.732 1.506092 0.017308176
3242.696 1.506526 0.017486332
3243.661 1.506965 0.017669441
3244.625 1.507408 0.017854009
3245.589 1.507856 0.018039994
3246.553 1.508307 0.018230619
3247.518 1.508763 0.018425744
3248.482 1.509223 0.018618824
3249.446 1.509688 0.018819425
3250.41 1.510157 0.01902418
3251.375 1.51063 0.019229852
3252.339 1.511108 0.019439481
3253.303 1.511591 0.01965294
3254.267 1.512079 0.019870108
3255.231 1.512571 0.020090859
3256.196 1.513069 0.020315083
3257.16 1.513571 0.020545561
3258.124 1.514078 0.020779222
3259.088 1.51459 0.02101312
3260.052 1.515108 0.021255663
3261.017 1.51563 0.021501014
3261.981 1.516158 0.021749079
3262.945 1.516692 0.022002475
3263.909 1.517231 0.022263698
3264.874 1.517775 0.022524536
3265.838 1.518325 0.022792852
3266.802 1.518881 0.023065798
3267.766 1.519443 0.023345768
3268.73 1.52001 0.023627466
3269.695 1.520583 0.023915814
3270.659 1.521163 0.024210578
3271.623 1.521748 0.024511524
3272.587 1.52234 0.024816027
3273.552 1.522938 0.025126329
3274.516 1.523543 0.02544456
3275.48 1.524154 0.025765801
3276.444 1.524771 0.026096795
3277.409 1.525396 0.026432663
3278.373 1.526027 0.02677545
3279.337 1.526665 0.027124891
3280.301 1.52731 0.027480736
3281.265 1.527962 0.027844878
3282.23 1.528622 0.028214883
3283.194 1.529288 0.028594693
3284.158 1.529963 0.028979812
3285.122 1.530644 0.029374085
3286.087 1.531333 0.029777151
3287.051 1.53203 0.030186683
3288.015 1.532735 0.030606316
3288.979 1.533448 0.031035641
3289.944 1.534169 0.03147237
3290.908 1.534898 0.03191806
3291.872 1.535636 0.032376029
3292.836 1.536382 0.032842133
3293.8 1.537136 0.033317816
3294.765 1.5379 0.033804443
3295.729 1.538672 0.034303278
3296.693 1.539453 0.034810379
3297.657 1.540243 0.035330448
3298.622 1.541042 0.035862919
3299.586 1.54185 0.036407255
3300.55 1.542668 0.036962923
3301.514 1.543496 0.037532602
3302.479 1.544333 0.038114097
3303.443 1.54518 0.038709957
3304.407 1.546036 0.039319526
3305.371 1.546903 0.039945167
3306.335 1.54778 0.040583193
3307.3 1.548667 0.041237369
3308.264 1.549565 0.041908357
3309.228 1.550473 0.042593967
3310.192 1.551392 0.043297637
3311.156 1.552322 0.044018492
3312.121 1.553262 0.044757042
3313.085 1.554214 0.04551373
3314.049 1.555176 0.04628896
3315.013 1.55615 0.047084343
3315.978 1.557135 0.047900118
3316.942 1.558131 0.048736487
3317.906 1.559138 0.049594812
3318.87 1.560157 0.05047515
3319.835 1.561188 0.051379856
3320.799 1.56223 0.052306522
3321.763 1.563285 0.053258482
3322.727 1.56435 0.054235499
3323.691 1.565428 0.05523948
3324.656 1.566517 0.056270044
3325.62 1.567618 0.057328876
3326.584 1.56873 0.058417499
3327.548 1.569855 0.059535284
3328.513 1.570991 0.060684539
3329.477 1.572138 0.061865445
3330.441 1.573297 0.063080952
3331.405 1.574468 0.064330012
3332.369 1.575649 0.065614358
3333.334 1.576842 0.066936396
3334.298 1.578045 0.068295695
3335.262 1.579259 0.069695197
3336.226 1.580483 0.071135893
3337.191 1.581717 0.072618604
3338.155 1.582961 0.07414563
3339.119 1.584214 0.075718239
3340.083 1.585475 0.077337489
3341.048 1.586745 0.079005808
3342.012 1.588022 0.080724575
3342.976 1.589306 0.082495689
3343.94 1.590596 0.084321521
3344.905 1.591892 0.086203426
3345.869 1.593191 0.088143222
3346.833 1.594494 0.090143777
3347.797 1.5958 0.092206329
3348.761 1.597106 0.094333738
3349.726 1.598412 0.096528523
3350.69 1.599716 0.098792218
3351.654 1.601017 0.1011279
3352.618 1.602312 0.1035375
3353.583 1.6036 0.106024
3354.547 1.604879 0.1085907
3355.511 1.606147 0.1112387
3356.475 1.6074 0.1139716
3357.439 1.608636 0.1167916
3358.404 1.609853 0.1197031
3359.368 1.611046 0.1227073
3360.332 1.612213 0.1258071
3361.296 1.61335 0.129007
3362.26 1.614452 0.132308
3363.225 1.615515 0.1357141
3364.189 1.616535 0.1392274
3365.153 1.617506 0.1428517
3366.117 1.618422 0.1465885
3367.082 1.619279 0.1504413
3368.046 1.620068 0.1544119
3369.01 1.620785 0.1585031
3369.974 1.621421 0.1627167
3370.939 1.621968 0.1670543
3371.903 1.622418 0.1715178
3372.867 1.622763 0.1761075
3373.831 1.622993 0.1808247
3374.795 1.623098 0.1856695
3375.76 1.623068 0.1906424
3376.724 1.622892 0.1957411
3377.688 1.622558 0.2009644
3378.652 1.622056 0.2063099
3379.617 1.621371 0.2117748
3380.581 1.620492 0.2173534
3381.545 1.619406 0.2230414
3382.51 1.618098 0.2288323
3383.474 1.616556 0.2347171
3384.438 1.614765 0.2406873
3385.402 1.612713 0.2467321
3386.366 1.610385 0.2528401
3387.331 1.607769 0.258996
3388.295 1.604851 0.2651855
3389.259 1.601621 0.2713904
3390.223 1.598066 0.2775934
3391.188 1.594177 0.2837721
3392.152 1.589945 0.289905
3393.116 1.585364 0.2959689
3394.08 1.580428 0.3019373
3395.044 1.575135 0.3077842
3396.009 1.569484 0.3134815
3396.973 1.563477 0.3190011
3397.937 1.557119 0.3243129
3398.901 1.550418 0.3293874
3399.865 1.543384 0.3341951
3400.83 1.536031 0.3387076
3401.794 1.528378 0.342895
3402.758 1.520443 0.3467309
3403.722 1.51225 0.3501899
3404.687 1.503826 0.3532479
3405.651 1.495199 0.3558842
3406.615 1.4864 0.35808
3407.579 1.477463 0.3598205
3408.543 1.468422 0.3610933
3409.508 1.459314 0.3618901
3410.472 1.450175 0.3622062
3411.436 1.441042 0.3620405
3412.4 1.431953 0.3613957
3413.365 1.422944 0.3602781
3414.329 1.41405 0.3586977
3415.293 1.405305 0.3566676
3416.257 1.396741 0.3542046
3417.221 1.388388 0.3513273
3418.186 1.380273 0.3480572
3419.15 1.372421 0.3444188
3420.114 1.364855 0.3404371
3421.078 1.357592 0.336139
3422.043 1.350649 0.3315519
3423.007 1.34404 0.326705
3423.971 1.337774 0.3216269
3424.935 1.331858 0.3163456
3425.9 1.326298 0.3108905
3426.864 1.321095 0.3052889
3427.828 1.316249 0.2995676
3428.792 1.311757 0.2937519
3429.757 1.307615 0.2878676
3430.721 1.303817 0.2819374
3431.685 1.300355 0.275983
3432.649 1.29722 0.2700241
3433.613 1.294401 0.2640809
3434.578 1.291888 0.2581699
3435.542 1.289669 0.2523058
3436.506 1.287731 0.2465042
3437.47 1.286063 0.2407771
3438.435 1.28465 0.2351354
3439.399 1.28348 0.2295884
3440.363 1.282541 0.2241461
3441.327 1.281818 0.2188147
3442.292 1.281301 0.2136006
3443.256 1.280976 0.2085085
3444.22 1.280832 0.2035435
3445.184 1.280856 0.1987086
3446.148 1.281039 0.1940056
3447.113 1.28137 0.1894379
3448.077 1.281837 0.1850061
3449.041 1.282433 0.1807109
3450.005 1.283147 0.1765523
3450.969 1.283972 0.1725313
3451.934 1.284899 0.1686471
3452.898 1.28592 0.1648991
3453.862 1.287028 0.1612859
3454.826 1.288218 0.157808
3455.791 1.289481 0.1544635
3456.755 1.290813 0.1512512
3457.719 1.292208 0.1481708
3458.683 1.293661 0.1452212
3459.647 1.295167 0.1424012
3460.612 1.296722 0.1397103
3461.576 1.29832 0.1371484
3462.54 1.299958 0.1347148
3463.504 1.301632 0.1324089
3464.469 1.303339 0.1302318
3465.433 1.305072 0.1281838
3466.397 1.30683 0.126266
3467.361 1.308607 0.1244792
3468.326 1.310399 0.1228255
3469.29 1.312201 0.1213069
3470.254 1.314007 0.119926
3471.218 1.315812 0.1186852
3472.183 1.317607 0.1175886
3473.147 1.319384 0.1166387
3474.111 1.321134 0.1158393
3475.075 1.322845 0.1151932
3476.039 1.324502 0.1147038
3477.004 1.326091 0.1143723
3477.968 1.327593 0.1141981
3478.932 1.328986 0.114179
3479.896 1.330248 0.1143087
3480.861 1.331353 0.1145758
3481.825 1.332274 0.1149635
3482.789 1.332986 0.115447
3483.753 1.333465 0.1159938
3484.717 1.333691 0.1165625
3485.682 1.333656 0.1171038
3486.646 1.33336 0.1175628
3487.61 1.332821 0.1178815
3488.574 1.332071 0.1180048
3489.539 1.331159 0.1178863
3490.503 1.330147 0.1174928
3491.467 1.329105 0.1168095
3492.431 1.328104 0.1158411
3493.396 1.327209 0.1146128
3494.36 1.326474 0.1131636
3495.324 1.325939 0.1115442
3496.288 1.325628 0.1098093
3497.252 1.325549 0.1080128
3498.217 1.325696 0.1062051
3499.181 1.326057 0.1044283
3500.145 1.326609 0.1027179
3501.109 1.32733 0.1011002
3502.073 1.328192 0.099594414
3503.038 1.329173 0.098213136
3504.002 1.330246 0.096964404
3504.966 1.331392 0.095851548
3505.93 1.332591 0.094875261
3506.895 1.333825 0.094034083
3507.859 1.335079 0.093325607
3508.823 1.33634 0.092745163
3509.787 1.337598 0.09228871
3510.752 1.338841 0.091952257
3511.716 1.340061 0.091730297
3512.68 1.34125 0.091617815
3513.644 1.342401 0.091610983
3514.608 1.343507 0.091704629
3515.573 1.344562 0.091894217
3516.537 1.345561 0.092175618
3517.501 1.346497 0.092544436
3518.465 1.347366 0.092995785
3519.43 1.348162 0.093525618
3520.394 1.34888 0.094129115
3521.358 1.349515 0.094801098
3522.322 1.350062 0.095536694
3523.287 1.350515 0.096329801
3524.251 1.35087 0.09717533
3525.215 1.351122 0.098066457
3526.179 1.351267 0.098996237
3527.143 1.3513 0.099957325
3528.108 1.351218 0.1009414
3529.072 1.351016 0.1019403
3530.036 1.350693 0.1029443
3531 1.350245 0.103944
3531.965 1.349672 0.1049282
3532.929 1.348973 0.1058867
3533.893 1.348149 0.1068081
3534.857 1.347201 0.107681
3535.822 1.346132 0.1084935
3536.786 1.344948 0.109234
3537.75 1.343652 0.1098912
3538.714 1.342252 0.1104539
3539.678 1.340758 0.1109119
3540.643 1.339177 0.1112553
3541.607 1.337522 0.1114758
3542.571 1.335804 0.1115661
3543.535 1.334036 0.1115204
3544.5 1.332232 0.1113338
3545.464 1.330405 0.1110043
3546.428 1.32857 0.1105305
3547.392 1.326741 0.1099129
3548.356 1.324932 0.1091538
3549.321 1.323156 0.1082579
3550.285 1.321426 0.10723
3551.249 1.319753 0.1060771
3552.213 1.318148 0.1048072
3553.177 1.316621 0.1034295
3554.142 1.315178 0.1019532
3555.106 1.313828 0.1003887
3556.07 1.312575 0.098746657
3557.034 1.311422 0.097038142
3557.999 1.310373 0.095273361
3558.963 1.309429 0.093462504
3559.927 1.308589 0.091615863
3560.891 1.307854 0.089742854
3561.856 1.307221 0.087852977
3562.82 1.306688 0.085954495
3563.784 1.306252 0.084054254
3564.748 1.30591 0.082160488
3565.712 1.305656 0.080278471
3566.677 1.305487 0.078414381
3567.641 1.305399 0.076572634
3568.605 1.305386 0.074758075
3569.569 1.305444 0.072973549
3570.534 1.305568 0.071222559
3571.498 1.305753 0.069508083
3572.462 1.305995 0.067831121
3573.427 1.30629 0.066193633
3574.391 1.306632 0.064596765
3575.355 1.307019 0.063041247
3576.319 1.307445 0.06152828
3577.283 1.307908 0.060057104
3578.248 1.308404 0.058627818
3579.212 1.308929 0.057240956
3580.176 1.309481 0.055895407
3581.14 1.310056 0.054590959
3582.104 1.310652 0.053326707
3583.069 1.311267 0.052101579
3584.033 1.311898 0.050915468
3584.997 1.312543 0.049766976
3585.961 1.3132 0.0486557
3586.926 1.313868 0.047580495
3587.89 1.314544 0.046539377
3588.854 1.315227 0.045532063
3589.818 1.315916 0.044557504
3590.782 1.31661 0.043614477
3591.747 1.317307 0.042702284
3592.711 1.318006 0.041819371
3593.675 1.318707 0.040965457
3594.639 1.319409 0.04013868
3595.604 1.32011 0.039338473
3596.568 1.32081 0.038563401
3597.532 1.321509 0.037814222
3598.496 1.322206 0.037087686
3599.46 1.3229 0.036384325
3600.425 1.323591 0.035703845
3601.389 1.324278 0.035044175
3602.353 1.324962 0.034404777
3603.317 1.325642 0.033785041
3604.281 1.326317 0.033184271
3605.246 1.326987 0.032601688
3606.21 1.327653 0.032037351
3607.174 1.328314 0.03148941
3608.138 1.328969 0.030957762
3609.103 1.329619 0.03044229
3610.067 1.330263 0.029941835
3611.031 1.330902 0.02945615
3611.995 1.331536 0.028983925
3612.96 1.332163 0.028525824
3613.924 1.332785 0.028079357
3614.888 1.333401 0.027647242
3615.852 1.334011 0.02722688
3616.817 1.334616 0.026817711
3617.781 1.335214 0.026420258
3618.745 1.335807 0.026033908
3619.709 1.336394 0.025656845
3620.674 1.336975 0.025290659
3621.638 1.33755 0.024934636
3622.602 1.338119 0.024588004
3623.566 1.338683 0.024249937
3624.531 1.339241 0.023920799
3625.495 1.339793 0.023599699
3626.459 1.34034 0.023288252
3627.423 1.340881 0.022982959
3628.387 1.341417 0.022686694
3629.352 1.341947 0.022397159
3630.316 1.342472 0.022115961
3631.28 1.342992 0.021840695
3632.244 1.343506 0.02157297
3633.208 1.344015 0.021310274
3634.173 1.344519 0.02105421
3635.137 1.345018 0.020806454
3636.101 1.345512 0.02056296
3637.065 1.346001 0.020325348
3638.03 1.346485 0.020093827
3638.994 1.346964 0.019867107
3639.958 1.347439 0.019645358
3640.922 1.347909 0.019428747
3641.886 1.348374 0.01921745
3642.851 1.348834 0.019010074
3643.815 1.34929 0.018809922
3644.779 1.349742 0.01861242
3645.743 1.350189 0.018419273
3646.708 1.350632 0.018230619
3647.672 1.351071 0.018044949
3648.636 1.351506 0.017865689
3649.6 1.351936 0.01768967
3650.564 1.352362 0.017515281
3651.529 1.352785 0.017347733
3652.493 1.353203 0.01718202
3653.457 1.353618 0.017019946
3654.421 1.354028 0.016861618
3655.386 1.354435 0.016707141
3656.35 1.354838 0.016554823
3657.314 1.355238 0.01640654
3658.278 1.355633 0.016260572
3659.243 1.356026 0.016118828
3660.207 1.356414 0.015977694
3661.171 1.3568 0.015840946
3662.135 1.357182 0.015706802
3663.1 1.35756 0.015577244
3664.064 1.357936 0.015446598
3665.028 1.358307 0.015320675
3665.992 1.358676 0.015197631
3666.956 1.359042 0.015077537
3667.921 1.359404 0.01495847
3668.885 1.359764 0.014840457
3669.849 1.36012 0.014727569
3670.813 1.360474 0.01461585
3671.778 1.360824 0.014507378
3672.742 1.361172 0.014400158
3673.706 1.361516 0.014292135
3674.67 1.361858 0.014189591
3675.635 1.362198 0.014088416
3676.599 1.362534 0.01398864
3677.563 1.362868 0.013892438
3678.527 1.363199 0.013797726
3679.491 1.363527 0.013704534
3680.456 1.363853 0.013610703
3681.42 1.364177 0.013522835
3682.384 1.364497 0.013434391
3683.348 1.364816 0.013347595
3684.312 1.365132 0.013262478
3685.277 1.365445 0.013179072
3686.241 1.365756 0.013097411
3687.205 1.366065 0.013017527
3688.169 1.366372 0.01293715
3689.134 1.366676 0.012860905
3690.098 1.366978 0.012786537
3691.062 1.367278 0.012711735
3692.026 1.367576 0.012638846
3692.99 1.367871 0.012567908
3693.955 1.368165 0.012496566
3694.919 1.368456 0.012429612
3695.883 1.368745 0.012362294
3696.847 1.369033 0.012294608
3697.812 1.369318 0.012231421
3698.776 1.369601 0.012167906
3699.74 1.369883 0.01210652
3700.704 1.370162 0.012044821
3701.669 1.37044 0.011985291
3702.633 1.370715 0.011927962
3703.597 1.370989 0.011870357
3704.561 1.371261 0.011812471
3705.525 1.371532 0.01175937
3706.49 1.3718 0.011703481
3707.454 1.372067 0.011652441
3708.418 1.372332 0.011598607
3709.382 1.372595 0.011549684
3710.347 1.372857 0.01149796
3711.311 1.373117 0.011448608
3712.275 1.373376 0.011404268
3713.239 1.373632 0.011354508
3714.204 1.373888 0.0113098
3715.168 1.374141 0.01126756
3716.132 1.374393 0.011222505
3717.096 1.374644 0.011179934
3718.06 1.374893 0.011137201
3719.025 1.375141 0.011096991
3719.989 1.375387 0.011056633
3720.953 1.375632 0.011016127
3721.917 1.375875 0.010980901
3722.882 1.376117 0.010942839
3723.846 1.376357 0.010907377
3724.81 1.376596 0.010871799
3725.774 1.376834 0.010836104
3726.739 1.377071 0.010800291
3727.703 1.377306 0.010769895
3728.667 1.37754 0.010736638
3729.631 1.377772 0.010706061
3730.595 1.378004 0.010675396
3731.56 1.378234 0.010644644
3732.524 1.378462 0.010616609
3733.488 1.37869 0.010588501
3734.452 1.378916 0.010557494
3735.417 1.379142 0.010534887
3736.381 1.379366 0.01050656
3737.345 1.379589 0.010483843
3738.309 1.37981 0.010458227
3739.273 1.380031 0.010435405
3740.238 1.380251 0.010412533
3741.202 1.380469 0.010389611
3742.166 1.380686 0.010366637
3743.13 1.380903 0.010346495
3744.094 1.381118 0.010326312
3745.059 1.381332 0.010308981
3746.023 1.381545 0.010288725
3746.987 1.381757 0.01027133
3747.951 1.381968 0.010253906
3748.916 1.382179 0.010239364
3749.88 1.382388 0.010221886
3750.844 1.382596 0.010207297
3751.808 1.382803 0.010192689
3752.773 1.38301 0.010180986
3753.737 1.383215 0.01016634
3754.701 1.383419 0.010151671
3755.665 1.383623 0.01014286
3756.629 1.383826 0.0101311
3757.594 1.384027 0.010119327
3758.558 1.384228 0.010110488
3759.522 1.384428 0.010101641
3760.487 1.384628 0.010092787
3761.451 1.384826 0.010086879
3762.415 1.385024 0.010078011
3763.379 1.38522 0.010072095
3764.344 1.385416 0.010066176
3765.308 1.385611 0.010060253
3766.272 1.385806 0.01005729
3767.236 1.385999 0.010051361
3768.2 1.386192 0.010048396
3769.165 1.386384 0.01004543
3770.129 1.386576 0.01004543
3771.093 1.386766 0.010042462
3772.057 1.386956 0.010042462
3773.021 1.387145 0.010042462
3773.986 1.387334 0.010042462
3774.95 1.387521 0.01004543
3775.914 1.387708 0.01004543
3776.878 1.387895 0.010048396
3777.843 1.38808 0.010051361
3778.807 1.388265 0.01005729
3779.771 1.38845 0.010060253
3780.735 1.388633 0.010063215
3781.699 1.388816 0.010072095
3782.664 1.388999 0.010078011
3783.628 1.389181 0.010083924
3784.592 1.389362 0.010092787
3785.556 1.389542 0.010101641
3786.521 1.389722 0.01010754
3787.485 1.389902 0.010119327
3788.449 1.390081 0.010128158
3789.413 1.390259 0.010139922
3790.377 1.390436 0.010151671
3791.342 1.390613 0.010163408
3792.306 1.39079 0.010178058
3793.27 1.390966 0.010192689
3794.234 1.391141 0.010204378
3795.198 1.391316 0.01021897
3796.163 1.391491 0.010233541
3797.127 1.391664 0.010251
3798.091 1.391838 0.010268428
3799.055 1.39201 0.010285827
3800.02 1.392183 0.010303197
3800.984 1.392355 0.010323425
3801.948 1.392526 0.010343613
3802.913 1.392697 0.010363762
3803.877 1.392867 0.010383872
3804.841 1.393037 0.010403943
3805.805 1.393206 0.010429692
3806.769 1.393375 0.010449675
3807.734 1.393543 0.010475311
3808.698 1.393711 0.010500886
3809.662 1.393879 0.010526397
3810.626 1.394046 0.010551848
3811.591 1.394213 0.010577236
3812.555 1.394379 0.010605374
3813.519 1.394545 0.01063624
3814.483 1.39471 0.010664224
3815.448 1.394875 0.010692133
3816.412 1.395039 0.010725529
3817.376 1.395203 0.010753279
3818.34 1.395367 0.010786485
3819.304 1.39553 0.01081959
3820.269 1.395693 0.010855339
3821.233 1.395856 0.010888234
3822.197 1.396018 0.010923758
3823.161 1.396179 0.010959168
3824.125 1.396341 0.010997173
3825.09 1.396501 0.011032348
3826.054 1.396662 0.011072793
3827.018 1.396822 0.01111041
3827.982 1.396982 0.011150573
3828.947 1.397141 0.011193255
3829.911 1.3973 0.011235774
3830.875 1.397459 0.011278134
3831.839 1.397617 0.011322968
3832.803 1.397775 0.011367624
3833.768 1.397932 0.011412106
3834.732 1.398089 0.011456414
3835.696 1.398246 0.011505734
3836.66 1.398402 0.011552264
3837.625 1.398558 0.011603745
3838.589 1.398714 0.011652441
3839.553 1.398869 0.011703481
3840.517 1.399024 0.011756836
3841.481 1.399178 0.011807424
3842.446 1.399333 0.011862823
3843.41 1.399486 0.011917965
3844.374 1.39964 0.011972851
3845.338 1.399793 0.012029965
3846.303 1.399945 0.012089276
3847.267 1.400098 0.012148296
3848.231 1.40025 0.012207031
3849.195 1.400401 0.012267915
3850.16 1.400552 0.012330914
3851.124 1.400703 0.012393594
3852.088 1.400854 0.012458351
3853.052 1.401004 0.012525151
3854.017 1.401153 0.012591599
3854.981 1.401303 0.012657696
3855.945 1.401451 0.012728135
3856.909 1.4016 0.012798186
3857.873 1.401748 0.012867856
3858.838 1.401896 0.012941756
3859.802 1.402043 0.013012948
3860.766 1.40219 0.013090583
3861.73 1.402336 0.013165497
3862.695 1.402482 0.013244488
3863.659 1.402627 0.013320774
3864.623 1.402772 0.013401074
3865.587 1.402917 0.013483107
3866.552 1.403061 0.013564643
3867.516 1.403205 0.01365006
3868.48 1.403348 0.013734944
3869.444 1.403491 0.013819308
3870.408 1.403633 0.013907447
3871.373 1.403775 0.013997159
3872.337 1.403916 0.014088416
3873.301 1.404057 0.014181187
3874.265 1.404197 0.014273356
3875.229 1.404336 0.014369081
3876.194 1.404475 0.014466234
3877.158 1.404614 0.014562737
3878.122 1.404752 0.014662672
3879.086 1.404889 0.014763949
3880.051 1.405025 0.01486654
3881.015 1.405161 0.01497042
3881.979 1.405297 0.01507556
3882.943 1.405431 0.015183899
3883.907 1.405565 0.015291469
3884.872 1.405699 0.015402159
3885.836 1.405831 0.015513979
3886.8 1.405963 0.015628815
3887.764 1.406094 0.015742812
3888.729 1.406224 0.015861627
3889.693 1.406354 0.015979558
3890.657 1.406482 0.016100328
3891.621 1.40661 0.016223874
3892.586 1.406737 0.01634831
3893.55 1.406863 0.016473614
3894.514 1.406988 0.016601562
3895.478 1.407112 0.016732095
3896.442 1.407235 0.016863385
3897.407 1.407357 0.016997168
3898.371 1.407478 0.017131645
3899.335 1.407598 0.017270254
3900.299 1.407717 0.01740947
3901.264 1.407835 0.01754928
3902.228 1.407951 0.017693037
3903.192 1.408066 0.017838979
3904.156 1.40818 0.017987052
3905.121 1.408293 0.018135557
3906.085 1.408405 0.018286116
3907.049 1.408515 0.018441912
3908.013 1.408624 0.018596401
3908.978 1.408731 0.018754387
3909.942 1.408837 0.018912626
3910.906 1.408941 0.019075805
3911.87 1.409044 0.019239148
3912.834 1.409145 0.019405724
3913.799 1.409244 0.019573929
3914.763 1.409342 0.019745227
3915.727 1.409438 0.019918045
3916.691 1.409532 0.020093827
3917.656 1.409624 0.020271024
3918.62 1.409714 0.020451058
3919.584 1.409802 0.02063241
3920.548 1.409888 0.020816479
3921.512 1.409972 0.02100319
3922.477 1.410054 0.021191068
3923.441 1.410134 0.021382872
3924.405 1.410211 0.021575734
3925.369 1.410286 0.021770993
3926.333 1.410358 0.021968586
3927.298 1.410428 0.022169797
3928.262 1.410496 0.022371862
3929.226 1.41056 0.022576079
3930.19 1.410622 0.022783697
3931.155 1.410682 0.02299333
3932.119 1.410738 0.023204921
3933.083 1.410791 0.023418419
3934.047 1.410841 0.023635032
3935.012 1.410889 0.023852177
3935.976 1.410933 0.024073552
3936.94 1.410973 0.024296593
3937.904 1.41101 0.024521248
3938.868 1.411044 0.024748683
3939.833 1.411074 0.024977626
3940.797 1.411101 0.025208037
3941.761 1.411124 0.025442218
3942.725 1.411143 0.025677744
3943.69 1.411158 0.025914581
3944.654 1.411169 0.026154971
3945.618 1.411176 0.026395429
3946.582 1.411178 0.026638193
3947.546 1.411177 0.026883198
3948.511 1.411171 0.027129285
3949.475 1.41116 0.027378606
3950.439 1.411145 0.027627831
3951.404 1.411125 0.027880175
3952.368 1.411101 0.028132373
3953.332 1.411071 0.028386531
3954.296 1.411037 0.028642597
3955.26 1.410997 0.028899485
3956.225 1.410952 0.029157178
3957.189 1.410902 0.029415652
3958.153 1.410847 0.029675893
3959.117 1.410786 0.029937852
3960.082 1.410719 0.030198528
3961.046 1.410647 0.030460885
3962.01 1.410569 0.030722942
3962.974 1.410485 0.030985668
3963.938 1.410395 0.031249046
3964.903 1.4103 0.031512115
3965.867 1.410198 0.031775821
3966.831 1.41009 0.032038283
3967.795 1.409975 0.032301381
3968.76 1.409855 0.032563273
3969.724 1.409728 0.03282398
3970.688 1.409595 0.033085335
3971.652 1.409455 0.033344641
3972.616 1.409308 0.033602834
3973.581 1.409155 0.033859938
3974.545 1.408996 0.034115102
3975.509 1.408829 0.034369241
3976.473 1.408656 0.034620658
3977.438 1.408477 0.034870256
3978.402 1.40829 0.035118081
3979.366 1.408097 0.035361644
3980.33 1.407897 0.035604376
3981.294 1.407691 0.03584297
3982.259 1.407478 0.036079161
3983.223 1.407258 0.036311354
3984.187 1.407031 0.036539622
3985.151 1.406798 0.036764853
3986.115 1.406558 0.036984686
3987.08 1.406312 0.037201617
3988.044 1.40606 0.037413307
3989.008 1.405801 0.037620638
3989.972 1.405536 0.037822891
3990.937 1.405264 0.038019367
3991.901 1.404987 0.038210154
3992.865 1.404704 0.038396887
3993.83 1.404415 0.038576536
3994.794 1.40412 0.03874997
3995.758 1.40382 0.038918037
3996.722 1.403514 0.039079282
3997.686 1.403203 0.039233025
3998.651 1.402888 0.039380874
3999.615 1.402568 0.039521381
