data provided by Paul Lucey in 2006
derived using techniques of Lucey 1998
Forsterite, Fo= 90.5000
minimum grain size (microns)= 0.000000
maximum grain size=(microns) 45.0000
column 1= wavelength, micrometers
column 2= real index
column 3= imaginary index
 
     0.300000      1.65324  0.000111396
     0.305000      1.65324  0.000102769
     0.310000      1.65324 9.46959e-005
     0.315000      1.65324 8.56381e-005
     0.320000      1.65324 7.56221e-005
     0.325000      1.65324 6.70804e-005
     0.330000      1.65324 5.72014e-005
     0.335000      1.65324 4.97084e-005
     0.340000      1.65324 4.34317e-005
     0.345000      1.65324 3.77340e-005
     0.350000      1.65324 3.30276e-005
     0.355000      1.65324 2.94354e-005
     0.360000      1.65324 2.63723e-005
     0.365000      1.65324 2.41748e-005
     0.370000      1.65324 2.23200e-005
     0.375000      1.65324 2.06696e-005
     0.380000      1.65324 1.93244e-005
     0.385000      1.65324 1.83912e-005
     0.390000      1.65324 1.76820e-005
     0.395000      1.65324 1.67003e-005
     0.400000      1.65324 1.58962e-005
     0.405000      1.65324 1.50710e-005
     0.410000      1.65324 1.44819e-005
     0.415000      1.65324 1.38768e-005
     0.420000      1.65324 1.35697e-005
     0.425000      1.65324 1.31466e-005
     0.430000      1.65324 1.27636e-005
     0.435000      1.65324 1.24240e-005
     0.440000      1.65324 1.19099e-005
     0.445000      1.65324 1.18239e-005
     0.450000      1.65324 1.17899e-005
     0.455000      1.65324 1.15258e-005
     0.460000      1.65324 1.10827e-005
     0.465000      1.65324 1.08007e-005
     0.470000      1.65324 1.05106e-005
     0.475000      1.65324 1.00365e-005
     0.480000      1.65324 9.67043e-006
     0.485000      1.65324 9.47239e-006
     0.490000      1.65324 9.14933e-006
     0.495000      1.65324 9.12132e-006
     0.500000      1.65324 8.53921e-006
     0.505000      1.65324 8.13013e-006
     0.510000      1.65324 7.89908e-006
     0.515000      1.65324 7.72504e-006
     0.520000      1.65324 7.54601e-006
     0.525000      1.65324 7.36347e-006
     0.530000      1.65324 7.23945e-006
     0.535000      1.65324 6.98240e-006
     0.540000      1.65324 6.85037e-006
     0.545000      1.65324 6.71534e-006
     0.550000      1.65324 6.50930e-006
     0.555000      1.65324 6.50130e-006
     0.560000      1.65324 6.42328e-006
     0.565000      1.65324 6.41228e-006
     0.570000      1.65324 6.33127e-006
     0.575000      1.65324 6.38628e-006
     0.580000      1.65324 6.37127e-006
     0.585000      1.65324 6.42628e-006
     0.590000      1.65324 6.40928e-006
     0.595000      1.65324 6.46429e-006
     0.600000      1.65324 6.51830e-006
     0.605000      1.65324 6.57231e-006
     0.610000      1.65324 6.62733e-006
     0.615000      1.65324 6.75535e-006
     0.620000      1.65324 6.81036e-006
     0.625000      1.65324 7.01740e-006
     0.630000      1.65324 6.99740e-006
     0.635000      1.65324 7.05241e-006
     0.640000      1.65324 7.10842e-006
     0.645000      1.65324 7.08542e-006
     0.650000      1.65324 7.06141e-006
     0.655000      1.65324 7.11542e-006
     0.660000      1.65324 7.09042e-006
     0.665000      1.65324 7.14343e-006
     0.670000      1.65324 7.19744e-006
     0.675000      1.65324 7.25145e-006
     0.680000      1.65324 7.38748e-006
     0.685000      1.65324 7.52500e-006
     0.690000      1.65324 7.66403e-006
     0.695000      1.65324 7.80306e-006
     0.700000      1.65324 8.02911e-006
     0.705000      1.65324 8.17213e-006
     0.710000      1.65324 8.40318e-006
     0.715000      1.65324 8.72224e-006
     0.720000      1.65324 8.95829e-006
     0.725000      1.65324 9.19734e-006
     0.730000      1.65324 9.43839e-006
     0.735000      1.65324 9.77145e-006
     0.740000      1.65324 1.01075e-005
     0.745000      1.65324 1.05396e-005
     0.750000      1.65324 1.08847e-005
     0.755000      1.65324 1.16018e-005
     0.760000      1.65324 1.19569e-005
     0.765000      1.65324 1.25035e-005
     0.770000      1.65324 1.30556e-005
     0.775000      1.65324 1.37107e-005
     0.780000      1.65324 1.42769e-005
     0.785000      1.65324 1.49460e-005
     0.790000      1.65324 1.54291e-005
     0.795000      1.65324 1.60162e-005
     0.800000      1.65324 1.66083e-005
     0.805000      1.65324 1.71094e-005
     0.810000      1.65324 1.77140e-005
     0.815000      1.65324 1.84272e-005
     0.820000      1.65324 1.90463e-005
     0.825000      1.65324 1.94684e-005
     0.830000      1.65324 1.99965e-005
     0.835000      1.65324 2.06346e-005
     0.840000      1.65324 2.13828e-005
     0.845000      1.65324 2.18239e-005
     0.850000      1.65324 2.23750e-005
     0.855000      1.65324 2.28246e-005
     0.860000      1.65324 2.35997e-005
     0.865000      1.65324 2.38448e-005
     0.870000      1.65324 2.44149e-005
     0.875000      1.65324 2.49910e-005
     0.880000      1.65324 2.54631e-005
     0.885000      1.65324 2.60492e-005
     0.890000      1.65324 2.64183e-005
     0.895000      1.65324 2.70134e-005
     0.900000      1.65324 2.73895e-005
     0.905000      1.65324 2.84462e-005
     0.910000      1.65324 2.91723e-005
     0.915000      1.65324 2.97915e-005
     0.920000      1.65324 3.08777e-005
     0.925000      1.65324 3.17418e-005
     0.930000      1.65324 3.27325e-005
     0.935000      1.65324 3.38498e-005
     0.940000      1.65324 3.52160e-005
     0.945000      1.65324 3.64783e-005
     0.950000      1.65324 3.79941e-005
     0.955000      1.65324 3.94054e-005
     0.960000      1.65324 4.09537e-005
     0.965000      1.65324 4.23960e-005
     0.970000      1.65324 4.39778e-005
     0.975000      1.65324 4.55761e-005
     0.980000      1.65324 4.74435e-005
     0.985000      1.65324 4.90773e-005
     0.990000      1.65324 5.08557e-005
     0.995000      1.65324 5.27826e-005
      1.00000      1.65324 5.44709e-005
      1.00500      1.65324 5.60462e-005
      1.01000      1.65324 5.73745e-005
      1.01500      1.65324 5.89793e-005
      1.02000      1.65324 6.03336e-005
      1.02500      1.65324 6.15658e-005
      1.03000      1.65324 6.26735e-005
      1.03500      1.65324 6.35197e-005
      1.04000      1.65324 6.45079e-005
      1.04500      1.65324 6.50910e-005
      1.05000      1.65324 6.55401e-005
      1.05500      1.65324 6.57141e-005
      1.06000      1.65324 6.58872e-005
      1.06500      1.65324 6.57792e-005
      1.07000      1.65324 6.55281e-005
      1.07500      1.65324 6.48500e-005
      1.08000      1.65324 6.48690e-005
      1.08500      1.65324 6.37537e-005
      1.09000      1.65324 6.27695e-005
      1.09500      1.65324 6.19189e-005
      1.10000      1.65324 6.06306e-005
      1.10500      1.65324 5.97615e-005
      1.11000      1.65324 5.88833e-005
      1.11500      1.65324 5.78521e-005
      1.12000      1.65324 5.69564e-005
      1.12500      1.65324 5.60522e-005
      1.13000      1.65324 5.49940e-005
      1.13500      1.65324 5.42188e-005
      1.14000      1.65324 5.32887e-005
      1.14500      1.65324 5.27896e-005
      1.15000      1.65324 5.19919e-005
      1.15500      1.65324 5.13328e-005
      1.16000      1.65324 5.08157e-005
      1.16500      1.65324 5.04406e-005
      1.17000      1.65324 4.99125e-005
      1.17500      1.65324 4.96774e-005
      1.18000      1.65324 4.91393e-005
      1.18500      1.65324 4.87452e-005
      1.19000      1.65324 4.83472e-005
      1.19500      1.65324 4.80951e-005
      1.20000      1.65324 4.79921e-005
      1.20500      1.65324 4.77340e-005
      1.21000      1.65324 4.73195e-005
      1.21500      1.65324 4.70544e-005
      1.22000      1.65324 4.67854e-005
      1.22500      1.65324 4.65123e-005
      1.23000      1.65324 4.62363e-005
      1.23500      1.65324 4.58012e-005
      1.24000      1.65324 4.53601e-005
      1.24500      1.65324 4.50730e-005
      1.25000      1.65324 4.46239e-005
      1.25500      1.65324 4.43289e-005
      1.26000      1.65324 4.37127e-005
      1.26500      1.65324 4.34097e-005
      1.27000      1.65324 4.27836e-005
      1.27500      1.65324 4.24720e-005
      1.28000      1.65324 4.21569e-005
      1.28500      1.65324 4.16768e-005
      1.29000      1.65324 4.11937e-005
      1.29500      1.65324 4.05426e-005
      1.30000      1.65324 3.98865e-005
      1.30500      1.65324 3.95514e-005
      1.31000      1.65324 3.87222e-005
      1.31500      1.65324 3.82131e-005
      1.32000      1.65324 3.75370e-005
      1.32500      1.65324 3.68544e-005
      1.33000      1.65324 3.61662e-005
      1.33500      1.65324 3.53071e-005
      1.34000      1.65324 3.47740e-005
      1.34500      1.65324 3.39038e-005
      1.35000      1.65324 3.35277e-005
      1.35500      1.65324 3.31486e-005
      1.36000      1.65324 3.25985e-005
      1.36500      1.65324 3.18739e-005
      1.37000      1.65324 3.09757e-005
      1.37500      1.65324 3.00705e-005
      1.38000      1.65324 2.96694e-005
      1.38500      1.65324 2.87543e-005
      1.39000      1.65324 2.78321e-005
      1.39500      1.65324 2.74175e-005
      1.40000      1.65324 2.68284e-005
      1.40500      1.65324 2.60612e-005
      1.41000      1.65324 2.52891e-005
      1.41500      1.65324 2.46859e-005
      1.42000      1.65324 2.39038e-005
      1.42500      1.65324 2.32907e-005
      1.43000      1.65324 2.26735e-005
      1.43500      1.65324 2.18759e-005
      1.44000      1.65324 2.14248e-005
      1.44500      1.65324 2.09707e-005
      1.45000      1.65324 2.03356e-005
      1.45500      1.65324 1.96974e-005
      1.46000      1.65324 1.92313e-005
      1.46500      1.65324 1.87633e-005
      1.47000      1.65324 1.82902e-005
      1.47500      1.65324 1.76360e-005
      1.48000      1.65324 1.71564e-005
      1.48500      1.65324 1.68534e-005
      1.49000      1.65324 1.63683e-005
      1.49500      1.65324 1.58782e-005
      1.50000      1.65324 1.55681e-005
      1.50500      1.65324 1.50730e-005
      1.51000      1.65324 1.45739e-005
      1.51500      1.65324 1.44389e-005
      1.52000      1.65324 1.39348e-005
      1.52500      1.65324 1.36117e-005
      1.53000      1.65324 1.32857e-005
      1.53500      1.65324 1.31436e-005
      1.54000      1.65324 1.28136e-005
      1.54500      1.65324 1.24830e-005
      1.55000      1.65324 1.21479e-005
      1.55500      1.65324 1.19999e-005
      1.56000      1.65324 1.18499e-005
      1.56500      1.65324 1.15098e-005
      1.57000      1.65324 1.11667e-005
      1.57500      1.65324 1.10127e-005
      1.58000      1.65324 1.08567e-005
      1.58500      1.65324 1.05096e-005
      1.59000      1.65324 1.05426e-005
      1.59500      1.65324 1.03826e-005
      1.60000      1.65324 1.00305e-005
      1.60500      1.65324 1.00615e-005
      1.61000      1.65324 9.89848e-006
      1.61500      1.65324 9.73445e-006
      1.62000      1.65324 9.56941e-006
      1.62500      1.65324 9.59942e-006
      1.63000      1.65324 9.43239e-006
      1.63500      1.65324 9.26435e-006
      1.64000      1.65324 9.09532e-006
      1.64500      1.65324 9.12232e-006
      1.65000      1.65324 8.95129e-006
      1.65500      1.65324 8.77926e-006
      1.66000      1.65324 9.00630e-006
      1.66500      1.65324 9.03231e-006
      1.67000      1.65324 8.85927e-006
      1.67500      1.65324 8.68424e-006
      1.68000      1.65324 8.71024e-006
      1.68500      1.65324 8.73625e-006
      1.69000      1.65324 8.55821e-006
      1.69500      1.65324 8.58322e-006
      1.70000      1.65324 8.40318e-006
      1.70500      1.65324 8.42919e-006
      1.71000      1.65324 8.45319e-006
      1.71500      1.65324 8.47820e-006
      1.72000      1.65324 8.29616e-006
      1.72500      1.65324 8.32016e-006
      1.73000      1.65324 8.34417e-006
      1.73500      1.65324 8.36917e-006
      1.74000      1.65324 8.39318e-006
      1.74500      1.65324 8.41618e-006
      1.75000      1.65324 8.44019e-006
      1.75500      1.65324 8.46519e-006
      1.76000      1.65324 8.48920e-006
      1.76500      1.65324 8.51320e-006
      1.77000      1.65324 8.32416e-006
      1.77500      1.65324 8.34817e-006
      1.78000      1.65324 8.58522e-006
      1.78500      1.65324 8.60922e-006
      1.79000      1.65324 8.63323e-006
      1.79500      1.65324 8.44219e-006
      1.80000      1.65324 8.46519e-006
      1.80500      1.65324 8.48920e-006
      1.81000      1.65324 8.51220e-006
      1.81500      1.65324 8.31816e-006
      1.82000      1.65324 8.55921e-006
      1.82500      1.65324 8.58222e-006
      1.83000      1.65324 8.38618e-006
      1.83500      1.65324 8.62923e-006
      1.84000      1.65324 8.65323e-006
      1.84500      1.65324 8.67623e-006
      1.85000      1.65324 8.70024e-006
      1.85500      1.65324 8.72424e-006
      1.86000      1.65324 8.74725e-006
      1.86500      1.65324 8.32216e-006
      1.87000      1.65324 8.79426e-006
      1.87500      1.65324 9.04331e-006
      1.88000      1.65324 8.61522e-006
      1.88500      1.65324 8.63823e-006
      1.89000      1.65324 8.88828e-006
      1.89500      1.65324 8.68424e-006
      1.90000      1.65324 8.93629e-006
      1.90500      1.65324 9.18834e-006
      1.91000      1.65324 9.21234e-006
      1.91500      1.65324 9.00630e-006
      1.92000      1.65324 9.03031e-006
      1.92500      1.65324 9.05331e-006
      1.93000      1.65324 9.07732e-006
      1.93500      1.65324 9.09932e-006
      1.94000      1.65324 9.12432e-006
      1.94500      1.65324 9.14633e-006
      1.95000      1.65324 8.93629e-006
      1.95500      1.65324 8.95929e-006
      1.96000      1.65324 8.98230e-006
      1.96500      1.65324 9.00430e-006
      1.97000      1.65324 9.02731e-006
      1.97500      1.65324 9.05031e-006
      1.98000      1.65324 8.83527e-006
      1.98500      1.65324 8.85827e-006
      1.99000      1.65324 8.88028e-006
      1.99500      1.65324 8.90228e-006
      2.00000      1.65324 8.92428e-006
      2.00500      1.65324 8.70624e-006
      2.01000      1.65324 8.72825e-006
      2.01500      1.65324 8.74925e-006
      2.02000      1.65324 8.77125e-006
      2.02500      1.65324 8.79226e-006
      2.03000      1.65324 8.81426e-006
      2.03500      1.65324 9.08032e-006
      2.04000      1.65324 8.85827e-006
      2.04500      1.65324 8.87927e-006
      2.05000      1.65324 8.90028e-006
      2.05500      1.65324 8.92228e-006
      2.06000      1.65324 8.94429e-006
      2.06500      1.65324 8.96629e-006
      2.07000      1.65324 8.98830e-006
      2.07500      1.65324 9.00930e-006
      2.08000      1.65324 9.03131e-006
      2.08500      1.65324 8.80226e-006
      2.09000      1.65324 8.82326e-006
      2.09500      1.65324 9.09632e-006
      2.10000      1.65324 9.11832e-006
      2.10500      1.65324 8.88628e-006
      2.11000      1.65324 8.90828e-006
      2.11500      1.65324 8.92929e-006
      2.12000      1.65324 8.95029e-006
      2.12500      1.65324 8.97129e-006
      2.13000      1.65324 8.99230e-006
      2.13500      1.65324 9.27035e-006
      2.14000      1.65324 9.29136e-006
      2.14500      1.65324 9.31336e-006
      2.15000      1.65324 9.33537e-006
      2.15500      1.65324 9.35637e-006
      2.16000      1.65324 9.37838e-006
      2.16500      1.65324 9.66043e-006
      2.17000      1.65324 9.42238e-006
      2.17500      1.65324 9.44439e-006
      2.18000      1.65324 9.46539e-006
      2.18500      1.65324 9.48640e-006
      2.19000      1.65324 9.24635e-006
      2.19500      1.65324 9.26735e-006
      2.20000      1.65324 9.28836e-006
      2.20500      1.65324 9.30936e-006
      2.21000      1.65324 9.33037e-006
      2.21500      1.65324 9.35137e-006
      2.22000      1.65324 9.37237e-006
      2.22500      1.65324 9.39338e-006
      2.23000      1.65324 9.41438e-006
      2.23500      1.65324 9.43539e-006
      2.24000      1.65324 9.45639e-006
      2.24500      1.65324 9.47739e-006
      2.25000      1.65324 9.22835e-006
      2.25500      1.65324 9.51940e-006
      2.26000      1.65324 9.26935e-006
      2.26500      1.65324 9.29036e-006
      2.27000      1.65324 9.31036e-006
      2.27500      1.65324 9.33037e-006
      2.28000      1.65324 9.35137e-006
      2.28500      1.65324 9.37237e-006
      2.29000      1.65324 9.39238e-006
      2.29500      1.65324 9.41338e-006
      2.30000      1.65324 9.43339e-006
      2.30500      1.65324 9.45339e-006
      2.31000      1.65324 9.47439e-006
      2.31500      1.65324 9.49440e-006
      2.32000      1.65324 9.51540e-006
      2.32500      1.65324 9.53641e-006
      2.33000      1.65324 9.55641e-006
      2.33500      1.65324 9.57742e-006
      2.34000      1.65324 9.87847e-006
      2.34500      1.65324 9.90048e-006
      2.35000      1.65324 9.92148e-006
      2.35500      1.65324 1.02255e-005
      2.36000      1.65324 1.02465e-005
      2.36500      1.65324 1.02696e-005
      2.37000      1.65324 1.02906e-005
      2.37500      1.65324 1.05976e-005
      2.38000      1.65324 1.06196e-005
      2.38500      1.65324 1.06426e-005
      2.39000      1.65324 1.06646e-005
      2.39500      1.65324 1.03996e-005
      2.40000      1.65324 1.04206e-005
      2.40500      1.65324 1.04426e-005
      2.41000      1.65324 1.04646e-005
      2.41500      1.65324 1.04866e-005
      2.42000      1.65324 1.07987e-005
      2.42500      1.65324 1.08207e-005
      2.43000      1.65324 1.08437e-005
      2.43500      1.65324 1.08657e-005
      2.44000      1.65324 1.08887e-005
      2.44500      1.65324 1.09107e-005
      2.45000      1.65324 1.12267e-005
      2.45500      1.65324 1.09557e-005
      2.46000      1.65324 1.09777e-005
      2.46500      1.65324 1.09997e-005
      2.47000      1.65324 1.13188e-005
      2.47500      1.65324 1.10437e-005
      2.48000      1.65324 1.10667e-005
      2.48500      1.65324 1.10887e-005
      2.49000      1.65324 1.11107e-005
      2.49500      1.65324 1.11337e-005
      2.50000      1.65324 1.11547e-005
      2.50500      1.65324 1.11777e-005
      2.51000      1.65324 1.12007e-005
      2.51500      1.65324 1.09207e-005
      2.52000      1.65324 1.12447e-005
      2.52500      1.65324 1.09637e-005
      2.53000      1.65324 1.15938e-005
      2.53500      1.65324 1.13118e-005
      2.54000      1.65324 1.10287e-005
      2.54500      1.65324 1.19689e-005
      2.55000      1.65324 1.22990e-005
      2.55500      1.65324 1.07867e-005
      2.56000      1.65324 1.20399e-005
      2.56500      1.65324 1.20639e-005
      2.57000      1.65324 1.20869e-005
      2.57500      1.65324 1.24200e-005
      2.58000      1.65324 1.21329e-005
      2.58500      1.65324 1.30906e-005
      2.59000      1.65324 1.18689e-005
      2.59500      1.65324 1.34537e-005
      2.60000      1.65324 1.12888e-005
