data provided by Paul Lucey in 2006
derived using techniques of Lucey 1998
Forsterite, Fo= 90.5000
minimum grain size (microns)= 45.0000
maximum grain size=(microns) 90.0000
column 1= wavelength, micrometers
column 2= real index
column 3= imaginary index
 
     0.300000      1.65324 7.92774e-005
     0.305000      1.65324 7.58302e-005
     0.310000      1.65324 6.91773e-005
     0.315000      1.65324 6.12728e-005
     0.320000      1.65324 5.30536e-005
     0.325000      1.65324 4.46829e-005
     0.330000      1.65324 3.77190e-005
     0.335000      1.65324 3.14058e-005
     0.340000      1.65324 2.62713e-005
     0.345000      1.65324 2.21579e-005
     0.350000      1.65324 1.88693e-005
     0.355000      1.65324 1.62162e-005
     0.360000      1.65324 1.43309e-005
     0.365000      1.65324 1.29826e-005
     0.370000      1.65324 1.19269e-005
     0.375000      1.65324 1.11797e-005
     0.380000      1.65324 1.05716e-005
     0.385000      1.65324 1.00365e-005
     0.390000      1.65324 9.40238e-006
     0.395000      1.65324 8.89428e-006
     0.400000      1.65324 8.63823e-006
     0.405000      1.65324 7.73905e-006
     0.410000      1.65324 7.32046e-006
     0.415000      1.65324 6.98140e-006
     0.420000      1.65324 6.86737e-006
     0.425000      1.65324 6.78536e-006
     0.430000      1.65324 6.59032e-006
     0.435000      1.65324 6.40728e-006
     0.440000      1.65324 6.10722e-006
     0.445000      1.65324 5.91318e-006
     0.450000      1.65324 5.92318e-006
     0.455000      1.65324 5.68214e-006
     0.460000      1.65324 5.35807e-006
     0.465000      1.65324 5.16303e-006
     0.470000      1.65324 5.04201e-006
     0.475000      1.65324 4.65993e-006
     0.480000      1.65324 4.43089e-006
     0.485000      1.65324 4.41588e-006
     0.490000      1.65324 4.38088e-006
     0.495000      1.65324 4.28186e-006
     0.500000      1.65324 3.72675e-006
     0.505000      1.65324 3.47369e-006
     0.510000      1.65324 3.23665e-006
     0.515000      1.65324 3.12062e-006
     0.520000      1.65324 2.98160e-006
     0.525000      1.65324 2.88158e-006
     0.530000      1.65324 2.71454e-006
     0.535000      1.65324 2.54451e-006
     0.540000      1.65324 2.41498e-006
     0.545000      1.65324 2.28246e-006
     0.550000      1.65324 2.19194e-006
     0.555000      1.65324 2.12192e-006
     0.560000      1.65324 2.09592e-006
     0.565000      1.65324 2.11442e-006
     0.570000      1.65324 2.13343e-006
     0.575000      1.65324 2.19844e-006
     0.580000      1.65324 2.26445e-006
     0.585000      1.65324 2.33147e-006
     0.590000      1.65324 2.42298e-006
     0.595000      1.65324 2.49150e-006
     0.600000      1.65324 2.58552e-006
     0.605000      1.65324 2.70554e-006
     0.610000      1.65324 2.82657e-006
     0.615000      1.65324 2.97459e-006
     0.620000      1.65324 3.12563e-006
     0.625000      1.65324 3.27766e-006
     0.630000      1.65324 3.40668e-006
     0.635000      1.65324 3.48570e-006
     0.640000      1.65324 3.48670e-006
     0.645000      1.65324 3.48770e-006
     0.650000      1.65324 3.43569e-006
     0.655000      1.65324 3.40868e-006
     0.660000      1.65324 3.43469e-006
     0.665000      1.65324 3.43369e-006
     0.670000      1.65324 3.48670e-006
     0.675000      1.65324 3.53971e-006
     0.680000      1.65324 3.59372e-006
     0.685000      1.65324 3.75975e-006
     0.690000      1.65324 3.95579e-006
     0.695000      1.65324 4.15483e-006
     0.700000      1.65324 4.38588e-006
     0.705000      1.65324 4.58992e-006
     0.710000      1.65324 4.88398e-006
     0.715000      1.65324 5.21204e-006
     0.720000      1.65324 5.54511e-006
     0.725000      1.65324 5.88218e-006
     0.730000      1.65324 6.28426e-006
     0.735000      1.65324 6.78436e-006
     0.740000      1.65324 7.22945e-006
     0.745000      1.65324 7.83707e-006
     0.750000      1.65324 8.39018e-006
     0.755000      1.65324 8.98430e-006
     0.760000      1.65324 9.71544e-006
     0.765000      1.65324 1.03926e-005
     0.770000      1.65324 1.12107e-005
     0.775000      1.65324 1.20429e-005
     0.780000      1.65324 1.28876e-005
     0.785000      1.65324 1.37117e-005
     0.790000      1.65324 1.45489e-005
     0.795000      1.65324 1.53641e-005
     0.800000      1.65324 1.62262e-005
     0.805000      1.65324 1.69954e-005
     0.810000      1.65324 1.77400e-005
     0.815000      1.65324 1.85312e-005
     0.820000      1.65324 1.92964e-005
     0.825000      1.65324 2.00355e-005
     0.830000      1.65324 2.08947e-005
     0.835000      1.65324 2.16548e-005
     0.840000      1.65324 2.24610e-005
     0.845000      1.65324 2.32787e-005
     0.850000      1.65324 2.39918e-005
     0.855000      1.65324 2.43259e-005
     0.860000      1.65324 2.48570e-005
     0.865000      1.65324 2.55901e-005
     0.870000      1.65324 2.61342e-005
     0.875000      1.65324 2.66433e-005
     0.880000      1.65324 2.74795e-005
     0.885000      1.65324 2.81621e-005
     0.890000      1.65324 2.88533e-005
     0.895000      1.65324 2.96754e-005
     0.900000      1.65324 3.05486e-005
     0.905000      1.65324 3.15168e-005
     0.910000      1.65324 3.26235e-005
     0.915000      1.65324 3.35307e-005
     0.920000      1.65324 3.50980e-005
     0.925000      1.65324 3.62953e-005
     0.930000      1.65324 3.75960e-005
     0.935000      1.65324 3.94534e-005
     0.940000      1.65324 4.09767e-005
     0.945000      1.65324 4.27526e-005
     0.950000      1.65324 4.46019e-005
     0.955000      1.65324 4.65753e-005
     0.960000      1.65324 4.87713e-005
     0.965000      1.65324 5.09567e-005
     0.970000      1.65324 5.32266e-005
     0.975000      1.65324 5.56861e-005
     0.980000      1.65324 5.77330e-005
     0.985000      1.65324 6.03236e-005
     0.990000      1.65324 6.26475e-005
     0.995000      1.65324 6.50620e-005
      1.00000      1.65324 6.74095e-005
      1.00500      1.65324 6.95774e-005
      1.01000      1.65324 7.16138e-005
      1.01500      1.65324 7.36787e-005
      1.02000      1.65324 7.54921e-005
      1.02500      1.65324 7.71014e-005
      1.03000      1.65324 7.85022e-005
      1.03500      1.65324 7.99155e-005
      1.04000      1.65324 8.09967e-005
      1.04500      1.65324 8.15608e-005
      1.05000      1.65324 8.24190e-005
      1.05500      1.65324 8.26355e-005
      1.06000      1.65324 8.26715e-005
      1.06500      1.65324 8.25285e-005
      1.07000      1.65324 8.17869e-005
      1.07500      1.65324 8.12187e-005
      1.08000      1.65324 8.02285e-005
      1.08500      1.65324 7.93524e-005
      1.09000      1.65324 7.79361e-005
      1.09500      1.65324 7.63393e-005
      1.10000      1.65324 7.51510e-005
      1.10500      1.65324 7.36627e-005
      1.11000      1.65324 7.24050e-005
      1.11500      1.65324 7.07917e-005
      1.12000      1.65324 6.92324e-005
      1.12500      1.65324 6.82542e-005
      1.13000      1.65324 6.68024e-005
      1.13500      1.65324 6.59292e-005
      1.14000      1.65324 6.49350e-005
      1.14500      1.65324 6.37017e-005
      1.15000      1.65324 6.28716e-005
      1.15500      1.65324 6.19189e-005
      1.16000      1.65324 6.13698e-005
      1.16500      1.65324 6.06986e-005
      1.17000      1.65324 5.99655e-005
      1.17500      1.65324 5.94594e-005
      1.18000      1.65324 5.87753e-005
      1.18500      1.65324 5.84362e-005
      1.19000      1.65324 5.78601e-005
      1.19500      1.65324 5.73375e-005
      1.20000      1.65324 5.69284e-005
      1.20500      1.65324 5.65153e-005
      1.21000      1.65324 5.63353e-005
      1.21500      1.65324 5.56181e-005
      1.22000      1.65324 5.54311e-005
      1.22500      1.65324 5.48840e-005
      1.23000      1.65324 5.43919e-005
      1.23500      1.65324 5.38368e-005
      1.24000      1.65324 5.35757e-005
      1.24500      1.65324 5.29526e-005
      1.25000      1.65324 5.24450e-005
      1.25500      1.65324 5.18129e-005
      1.26000      1.65324 5.10567e-005
      1.26500      1.65324 5.05966e-005
      1.27000      1.65324 4.98325e-005
      1.27500      1.65324 4.93644e-005
      1.28000      1.65324 4.87723e-005
      1.28500      1.65324 4.79341e-005
      1.29000      1.65324 4.71514e-005
      1.29500      1.65324 4.63653e-005
      1.30000      1.65324 4.54531e-005
      1.30500      1.65324 4.46579e-005
      1.31000      1.65324 4.37988e-005
      1.31500      1.65324 4.28736e-005
      1.32000      1.65324 4.19449e-005
      1.32500      1.65324 4.10717e-005
      1.33000      1.65324 4.00735e-005
      1.33500      1.65324 3.91313e-005
      1.34000      1.65324 3.81851e-005
      1.34500      1.65324 3.69924e-005
      1.35000      1.65324 3.59172e-005
      1.35500      1.65324 3.51400e-005
      1.36000      1.65324 3.41168e-005
      1.36500      1.65324 3.31496e-005
      1.37000      1.65324 3.24210e-005
      1.37500      1.65324 3.13248e-005
      1.38000      1.65324 3.01635e-005
      1.38500      1.65324 2.94834e-005
      1.39000      1.65324 2.84352e-005
      1.39500      1.65324 2.78691e-005
      1.40000      1.65324 2.69344e-005
      1.40500      1.65324 2.59362e-005
      1.41000      1.65324 2.50540e-005
      1.41500      1.65324 2.41688e-005
      1.42000      1.65324 2.34007e-005
      1.42500      1.65324 2.24470e-005
      1.43000      1.65324 2.16718e-005
      1.43500      1.65324 2.08937e-005
      1.44000      1.65324 2.00495e-005
      1.44500      1.65324 1.94474e-005
      1.45000      1.65324 1.86572e-005
      1.45500      1.65324 1.79861e-005
      1.46000      1.65324 1.73125e-005
      1.46500      1.65324 1.66353e-005
      1.47000      1.65324 1.58922e-005
      1.47500      1.65324 1.52701e-005
      1.48000      1.65324 1.46439e-005
      1.48500      1.65324 1.40758e-005
      1.49000      1.65324 1.35057e-005
      1.49500      1.65324 1.29326e-005
      1.50000      1.65324 1.24800e-005
      1.50500      1.65324 1.19629e-005
      1.51000      1.65324 1.14428e-005
      1.51500      1.65324 1.09817e-005
      1.52000      1.65324 1.05186e-005
      1.52500      1.65324 1.01155e-005
      1.53000      1.65324 9.71044e-006
      1.53500      1.65324 9.30236e-006
      1.54000      1.65324 8.95529e-006
      1.54500      1.65324 8.54321e-006
      1.55000      1.65324 8.25515e-006
      1.55500      1.65324 7.90208e-006
      1.56000      1.65324 7.61002e-006
      1.56500      1.65324 7.31646e-006
      1.57000      1.65324 7.02140e-006
      1.57500      1.65324 6.72434e-006
      1.58000      1.65324 6.55331e-006
      1.58500      1.65324 6.31726e-006
      1.59000      1.65324 6.14423e-006
      1.59500      1.65324 5.90518e-006
      1.60000      1.65324 5.72915e-006
      1.60500      1.65324 5.55211e-006
      1.61000      1.65324 5.37508e-006
      1.61500      1.65324 5.19604e-006
      1.62000      1.65324 5.01600e-006
      1.62500      1.65324 4.89998e-006
      1.63000      1.65324 4.78396e-006
      1.63500      1.65324 4.66693e-006
      1.64000      1.65324 4.48290e-006
      1.64500      1.65324 4.42989e-006
      1.65000      1.65324 4.31086e-006
      1.65500      1.65324 4.19084e-006
      1.66000      1.65324 4.13583e-006
      1.66500      1.65324 4.08182e-006
      1.67000      1.65324 4.02681e-006
      1.67500      1.65324 3.90378e-006
      1.68000      1.65324 3.84777e-006
      1.68500      1.65324 3.72374e-006
      1.69000      1.65324 3.73475e-006
      1.69500      1.65324 3.67774e-006
      1.70000      1.65324 3.55271e-006
      1.70500      1.65324 3.56271e-006
      1.71000      1.65324 3.50470e-006
      1.71500      1.65324 3.44569e-006
      1.72000      1.65324 3.45569e-006
      1.72500      1.65324 3.39668e-006
      1.73000      1.65324 3.33667e-006
      1.73500      1.65324 3.34667e-006
      1.74000      1.65324 3.35667e-006
      1.74500      1.65324 3.29566e-006
      1.75000      1.65324 3.30566e-006
      1.75500      1.65324 3.24465e-006
      1.76000      1.65324 3.25365e-006
      1.76500      1.65324 3.26265e-006
      1.77000      1.65324 3.20064e-006
      1.77500      1.65324 3.13863e-006
      1.78000      1.65324 3.14763e-006
      1.78500      1.65324 3.15663e-006
      1.79000      1.65324 3.16563e-006
      1.79500      1.65324 3.10162e-006
      1.80000      1.65324 3.03861e-006
      1.80500      1.65324 3.04661e-006
      1.81000      1.65324 3.05561e-006
      1.81500      1.65324 2.91858e-006
      1.82000      1.65324 2.92559e-006
      1.82500      1.65324 2.93359e-006
      1.83000      1.65324 2.86857e-006
      1.83500      1.65324 2.87658e-006
      1.84000      1.65324 2.88458e-006
      1.84500      1.65324 2.89258e-006
      1.85000      1.65324 2.90058e-006
      1.85500      1.65324 2.90758e-006
      1.86000      1.65324 2.91558e-006
      1.86500      1.65324 2.84857e-006
      1.87000      1.65324 2.85657e-006
      1.87500      1.65324 3.01460e-006
      1.88000      1.65324 3.02260e-006
      1.88500      1.65324 3.10662e-006
      1.89000      1.65324 3.34167e-006
      1.89500      1.65324 3.42669e-006
      1.90000      1.65324 3.66473e-006
      1.90500      1.65324 3.82777e-006
      1.91000      1.65324 3.83777e-006
      1.91500      1.65324 3.77075e-006
      1.92000      1.65324 3.70374e-006
      1.92500      1.65324 3.63573e-006
      1.93000      1.65324 3.56771e-006
      1.93500      1.65324 3.49970e-006
      1.94000      1.65324 3.50870e-006
      1.94500      1.65324 3.43969e-006
      1.95000      1.65324 3.44769e-006
      1.95500      1.65324 3.37868e-006
      1.96000      1.65324 3.38668e-006
      1.96500      1.65324 3.31666e-006
      1.97000      1.65324 3.24665e-006
      1.97500      1.65324 3.17564e-006
      1.98000      1.65324 3.10362e-006
      1.98500      1.65324 3.11162e-006
      1.99000      1.65324 3.03961e-006
      1.99500      1.65324 2.96759e-006
      2.00000      1.65324 2.89458e-006
      2.00500      1.65324 2.90158e-006
      2.01000      1.65324 2.82857e-006
      2.01500      1.65324 2.75455e-006
      2.02000      1.65324 2.76155e-006
      2.02500      1.65324 2.68754e-006
      2.03000      1.65324 2.69354e-006
      2.03500      1.65324 2.70054e-006
      2.04000      1.65324 2.62552e-006
      2.04500      1.65324 2.63153e-006
      2.05000      1.65324 2.55651e-006
      2.05500      1.65324 2.56251e-006
      2.06000      1.65324 2.56851e-006
      2.06500      1.65324 2.49250e-006
      2.07000      1.65324 2.49850e-006
      2.07500      1.65324 2.50450e-006
      2.08000      1.65324 2.51050e-006
      2.08500      1.65324 2.43249e-006
      2.09000      1.65324 2.43849e-006
      2.09500      1.65324 2.44449e-006
      2.10000      1.65324 2.36597e-006
      2.10500      1.65324 2.37147e-006
      2.11000      1.65324 2.37748e-006
      2.11500      1.65324 2.38298e-006
      2.12000      1.65324 2.30346e-006
      2.12500      1.65324 2.30896e-006
      2.13000      1.65324 2.31446e-006
      2.13500      1.65324 2.31996e-006
      2.14000      1.65324 2.32546e-006
      2.14500      1.65324 2.41648e-006
      2.15000      1.65324 2.33647e-006
      2.15500      1.65324 2.34197e-006
      2.16000      1.65324 2.34747e-006
      2.16500      1.65324 2.35247e-006
      2.17000      1.65324 2.44499e-006
      2.17500      1.65324 2.36347e-006
      2.18000      1.65324 2.36897e-006
      2.18500      1.65324 2.28696e-006
      2.19000      1.65324 2.37948e-006
      2.19500      1.65324 2.29746e-006
      2.20000      1.65324 2.30246e-006
      2.20500      1.65324 2.30796e-006
      2.21000      1.65324 2.31296e-006
      2.21500      1.65324 2.22945e-006
      2.22000      1.65324 2.23445e-006
      2.22500      1.65324 2.23945e-006
      2.23000      1.65324 2.24495e-006
      2.23500      1.65324 2.33897e-006
      2.24000      1.65324 2.34397e-006
      2.24500      1.65324 2.25995e-006
      2.25000      1.65324 2.35447e-006
      2.25500      1.65324 2.35997e-006
      2.26000      1.65324 2.36497e-006
      2.26500      1.65324 2.37047e-006
      2.27000      1.65324 2.37548e-006
      2.27500      1.65324 2.38148e-006
      2.28000      1.65324 2.47750e-006
      2.28500      1.65324 2.48300e-006
      2.29000      1.65324 2.58052e-006
      2.29500      1.65324 2.58552e-006
      2.30000      1.65324 2.59152e-006
      2.30500      1.65324 2.59752e-006
      2.31000      1.65324 2.60252e-006
      2.31500      1.65324 2.60852e-006
      2.32000      1.65324 2.61352e-006
      2.32500      1.65324 2.52651e-006
      2.33000      1.65324 2.53251e-006
      2.33500      1.65324 2.53751e-006
      2.34000      1.65324 2.63653e-006
      2.34500      1.65324 2.64253e-006
      2.35000      1.65324 2.64753e-006
      2.35500      1.65324 2.65353e-006
      2.36000      1.65324 2.75355e-006
      2.36500      1.65324 2.75955e-006
      2.37000      1.65324 2.76555e-006
      2.37500      1.65324 2.86657e-006
      2.38000      1.65324 2.96759e-006
      2.38500      1.65324 2.97359e-006
      2.39000      1.65324 2.97960e-006
      2.39500      1.65324 2.98660e-006
      2.40000      1.65324 2.99260e-006
      2.40500      1.65324 2.99860e-006
      2.41000      1.65324 3.00560e-006
      2.41500      1.65324 3.10762e-006
      2.42000      1.65324 3.11462e-006
      2.42500      1.65324 3.12062e-006
      2.43000      1.65324 3.12763e-006
      2.43500      1.65324 3.13363e-006
      2.44000      1.65324 3.23765e-006
      2.44500      1.65324 3.24465e-006
      2.45000      1.65324 3.34967e-006
      2.45500      1.65324 3.35667e-006
      2.46000      1.65324 3.36367e-006
      2.46500      1.65324 3.46869e-006
      2.47000      1.65324 3.47570e-006
      2.47500      1.65324 3.38368e-006
      2.48000      1.65324 3.48970e-006
      2.48500      1.65324 3.49670e-006
      2.49000      1.65324 3.60372e-006
      2.49500      1.65324 3.61072e-006
      2.50000      1.65324 3.61872e-006
      2.50500      1.65324 3.62573e-006
      2.51000      1.65324 3.53171e-006
      2.51500      1.65324 3.53971e-006
      2.52000      1.65324 3.54671e-006
      2.52500      1.65324 3.55271e-006
      2.53000      1.65324 3.35767e-006
      2.53500      1.65324 3.46569e-006
      2.54000      1.65324 3.26865e-006
      2.54500      1.65324 3.37668e-006
      2.55000      1.65324 3.48670e-006
      2.55500      1.65324 3.39068e-006
      2.56000      1.65324 3.19164e-006
      2.56500      1.65324 3.40368e-006
      2.57000      1.65324 3.41068e-006
      2.57500      1.65324 3.51970e-006
      2.58000      1.65324 3.21764e-006
      2.58500      1.65324 3.32667e-006
      2.59000      1.65324 3.22965e-006
      2.59500      1.65324 3.54771e-006
      2.60000      1.65324 3.13763e-006
