data provided by Paul Lucey in 2006
derived using techniques of Lucey 1998
Forsterite, Fo= 90.2000
minimum grain size (microns)= 45.0000
maximum grain size=(microns) 90.0000
column 1= wavelength, micrometers
column 2= real index
column 3= imaginary index
 
     0.300000      1.65382 7.74095e-005
     0.305000      1.65382 7.34737e-005
     0.310000      1.65382 6.73625e-005
     0.315000      1.65382 5.97505e-005
     0.320000      1.65382 5.11667e-005
     0.325000      1.65382 4.29956e-005
     0.330000      1.65382 3.55281e-005
     0.335000      1.65382 2.88313e-005
     0.340000      1.65382 2.31316e-005
     0.345000      1.65382 1.88763e-005
     0.350000      1.65382 1.53771e-005
     0.355000      1.65382 1.27465e-005
     0.360000      1.65382 1.07697e-005
     0.365000      1.65382 9.50440e-006
     0.370000      1.65382 8.63223e-006
     0.375000      1.65382 8.13813e-006
     0.380000      1.65382 7.81506e-006
     0.385000      1.65382 7.49900e-006
     0.390000      1.65382 7.05741e-006
     0.395000      1.65382 6.75635e-006
     0.400000      1.65382 6.60232e-006
     0.405000      1.65382 5.65013e-006
     0.410000      1.65382 5.21804e-006
     0.415000      1.65382 4.84597e-006
     0.420000      1.65382 4.67594e-006
     0.425000      1.65382 4.57191e-006
     0.430000      1.65382 4.48290e-006
     0.435000      1.65382 4.38988e-006
     0.440000      1.65382 4.23885e-006
     0.445000      1.65382 4.39788e-006
     0.450000      1.65382 4.55991e-006
     0.455000      1.65382 4.42188e-006
     0.460000      1.65382 4.06981e-006
     0.465000      1.65382 3.90278e-006
     0.470000      1.65382 3.69274e-006
     0.475000      1.65382 3.32266e-006
     0.480000      1.65382 3.10162e-006
     0.485000      1.65382 3.25365e-006
     0.490000      1.65382 3.32667e-006
     0.495000      1.65382 3.34067e-006
     0.500000      1.65382 2.78256e-006
     0.505000      1.65382 2.48150e-006
     0.510000      1.65382 2.34047e-006
     0.515000      1.65382 2.34247e-006
     0.520000      1.65382 2.25995e-006
     0.525000      1.65382 2.19644e-006
     0.530000      1.65382 2.06741e-006
     0.535000      1.65382 1.93539e-006
     0.540000      1.65382 1.77886e-006
     0.545000      1.65382 1.64183e-006
     0.550000      1.65382 1.54581e-006
     0.555000      1.65382 1.49280e-006
     0.560000      1.65382 1.46129e-006
     0.565000      1.65382 1.47429e-006
     0.570000      1.65382 1.51030e-006
     0.575000      1.65382 1.56981e-006
     0.580000      1.65382 1.63033e-006
     0.585000      1.65382 1.71484e-006
     0.590000      1.65382 1.80086e-006
     0.595000      1.65382 1.91238e-006
     0.600000      1.65382 1.97690e-006
     0.605000      1.65382 2.09092e-006
     0.610000      1.65382 2.20644e-006
     0.615000      1.65382 2.37397e-006
     0.620000      1.65382 2.49350e-006
     0.625000      1.65382 2.64053e-006
     0.630000      1.65382 2.76355e-006
     0.635000      1.65382 2.78556e-006
     0.640000      1.65382 2.75555e-006
     0.645000      1.65382 2.69854e-006
     0.650000      1.65382 2.64053e-006
     0.655000      1.65382 2.55451e-006
     0.660000      1.65382 2.52050e-006
     0.665000      1.65382 2.53951e-006
     0.670000      1.65382 2.55951e-006
     0.675000      1.65382 2.65953e-006
     0.680000      1.65382 2.78956e-006
     0.685000      1.65382 2.94859e-006
     0.690000      1.65382 3.13863e-006
     0.695000      1.65382 3.35867e-006
     0.700000      1.65382 3.58172e-006
     0.705000      1.65382 3.89378e-006
     0.710000      1.65382 4.23985e-006
     0.715000      1.65382 4.59192e-006
     0.720000      1.65382 4.97700e-006
     0.725000      1.65382 5.39908e-006
     0.730000      1.65382 5.85617e-006
     0.735000      1.65382 6.35127e-006
     0.740000      1.65382 6.91538e-006
     0.745000      1.65382 7.48700e-006
     0.750000      1.65382 8.25615e-006
     0.755000      1.65382 8.94329e-006
     0.760000      1.65382 9.60842e-006
     0.765000      1.65382 1.04136e-005
     0.770000      1.65382 1.12648e-005
     0.775000      1.65382 1.20629e-005
     0.780000      1.65382 1.29406e-005
     0.785000      1.65382 1.37988e-005
     0.790000      1.65382 1.46359e-005
     0.795000      1.65382 1.54861e-005
     0.800000      1.65382 1.64183e-005
     0.805000      1.65382 1.70834e-005
     0.810000      1.65382 1.80061e-005
     0.815000      1.65382 1.88703e-005
     0.820000      1.65382 1.97114e-005
     0.825000      1.65382 2.04906e-005
     0.830000      1.65382 2.12798e-005
     0.835000      1.65382 2.20799e-005
     0.840000      1.65382 2.27015e-005
     0.845000      1.65382 2.35207e-005
     0.850000      1.65382 2.42348e-005
     0.855000      1.65382 2.50350e-005
     0.860000      1.65382 2.56111e-005
     0.865000      1.65382 2.62713e-005
     0.870000      1.65382 2.70194e-005
     0.875000      1.65382 2.78551e-005
     0.880000      1.65382 2.86202e-005
     0.885000      1.65382 2.97214e-005
     0.890000      1.65382 3.06726e-005
     0.895000      1.65382 3.16348e-005
     0.900000      1.65382 3.29886e-005
     0.905000      1.65382 3.40638e-005
     0.910000      1.65382 3.53251e-005
     0.915000      1.65382 3.67774e-005
     0.920000      1.65382 3.84272e-005
     0.925000      1.65382 4.01465e-005
     0.930000      1.65382 4.21199e-005
     0.935000      1.65382 4.40348e-005
     0.940000      1.65382 4.62603e-005
     0.945000      1.65382 4.84772e-005
     0.950000      1.65382 5.08287e-005
     0.955000      1.65382 5.34637e-005
     0.960000      1.65382 5.60512e-005
     0.965000      1.65382 5.89873e-005
     0.970000      1.65382 6.17258e-005
     0.975000      1.65382 6.46699e-005
     0.980000      1.65382 6.74085e-005
     0.985000      1.65382 7.04626e-005
     0.990000      1.65382 7.34127e-005
     0.995000      1.65382 7.60312e-005
      1.00000      1.65382 7.92523e-005
      1.00500      1.65382 8.17388e-005
      1.01000      1.65382 8.42068e-005
      1.01500      1.65382 8.65373e-005
      1.02000      1.65382 8.86652e-005
      1.02500      1.65382 9.08217e-005
      1.03000      1.65382 9.25245e-005
      1.03500      1.65382 9.40038e-005
      1.04000      1.65382 9.50070e-005
      1.04500      1.65382 9.59552e-005
      1.05000      1.65382 9.70944e-005
      1.05500      1.65382 9.74945e-005
      1.06000      1.65382 9.72074e-005
      1.06500      1.65382 9.71654e-005
      1.07000      1.65382 9.68064e-005
      1.07500      1.65382 9.56901e-005
      1.08000      1.65382 9.45679e-005
      1.08500      1.65382 9.30656e-005
      1.09000      1.65382 9.14978e-005
      1.09500      1.65382 8.98635e-005
      1.10000      1.65382 8.84122e-005
      1.10500      1.65382 8.65863e-005
      1.11000      1.65382 8.48190e-005
      1.11500      1.65382 8.29266e-005
      1.12000      1.65382 8.15828e-005
      1.12500      1.65382 7.99905e-005
      1.13000      1.65382 7.85762e-005
      1.13500      1.65382 7.70364e-005
      1.14000      1.65382 7.58572e-005
      1.14500      1.65382 7.47319e-005
      1.15000      1.65382 7.35427e-005
      1.15500      1.65382 7.26495e-005
      1.16000      1.65382 7.17519e-005
      1.16500      1.65382 7.09697e-005
      1.17000      1.65382 7.01825e-005
      1.17500      1.65382 6.94514e-005
      1.18000      1.65382 6.87753e-005
      1.18500      1.65382 6.83982e-005
      1.19000      1.65382 6.77731e-005
      1.19500      1.65382 6.73265e-005
      1.20000      1.65382 6.71804e-005
      1.20500      1.65382 6.63583e-005
      1.21000      1.65382 6.59602e-005
      1.21500      1.65382 6.56191e-005
      1.22000      1.65382 6.49670e-005
      1.22500      1.65382 6.44949e-005
      1.23000      1.65382 6.38958e-005
      1.23500      1.65382 6.34767e-005
      1.24000      1.65382 6.29306e-005
      1.24500      1.65382 6.23800e-005
      1.25000      1.65382 6.14538e-005
      1.25500      1.65382 6.08947e-005
      1.26000      1.65382 6.00215e-005
      1.26500      1.65382 5.94534e-005
      1.27000      1.65382 5.86322e-005
      1.27500      1.65382 5.79931e-005
      1.28000      1.65382 5.70394e-005
      1.28500      1.65382 5.62052e-005
      1.29000      1.65382 5.51190e-005
      1.29500      1.65382 5.40898e-005
      1.30000      1.65382 5.31186e-005
      1.30500      1.65382 5.20179e-005
      1.31000      1.65382 5.09757e-005
      1.31500      1.65382 4.99905e-005
      1.32000      1.65382 4.86302e-005
      1.32500      1.65382 4.75750e-005
      1.33000      1.65382 4.62683e-005
      1.33500      1.65382 4.52040e-005
      1.34000      1.65382 4.41358e-005
      1.34500      1.65382 4.28786e-005
      1.35000      1.65382 4.18639e-005
      1.35500      1.65382 4.12157e-005
      1.36000      1.65382 4.02546e-005
      1.36500      1.65382 3.87953e-005
      1.37000      1.65382 3.75170e-005
      1.37500      1.65382 3.61122e-005
      1.38000      1.65382 3.52581e-005
      1.38500      1.65382 3.39068e-005
      1.39000      1.65382 3.24910e-005
      1.39500      1.65382 3.14398e-005
      1.40000      1.65382 3.03846e-005
      1.40500      1.65382 2.92634e-005
      1.41000      1.65382 2.78941e-005
      1.41500      1.65382 2.67654e-005
      1.42000      1.65382 2.56941e-005
      1.42500      1.65382 2.47419e-005
      1.43000      1.65382 2.37247e-005
      1.43500      1.65382 2.27025e-005
      1.44000      1.65382 2.17388e-005
      1.44500      1.65382 2.08327e-005
      1.45000      1.65382 1.99225e-005
      1.45500      1.65382 1.90083e-005
      1.46000      1.65382 1.82131e-005
      1.46500      1.65382 1.73535e-005
      1.47000      1.65382 1.66123e-005
      1.47500      1.65382 1.58682e-005
      1.48000      1.65382 1.49970e-005
      1.48500      1.65382 1.43689e-005
      1.49000      1.65382 1.36147e-005
      1.49500      1.65382 1.30416e-005
      1.50000      1.65382 1.23430e-005
      1.50500      1.65382 1.17639e-005
      1.51000      1.65382 1.12437e-005
      1.51500      1.65382 1.06596e-005
      1.52000      1.65382 1.00715e-005
      1.52500      1.65382 9.60642e-006
      1.53000      1.65382 9.01230e-006
      1.53500      1.65382 8.54121e-006
      1.54000      1.65382 8.13013e-006
      1.54500      1.65382 7.78006e-006
      1.55000      1.65382 7.36447e-006
      1.55500      1.65382 6.94639e-006
      1.56000      1.65382 6.58932e-006
      1.56500      1.65382 6.35727e-006
      1.57000      1.65382 5.99620e-006
      1.57500      1.65382 5.63413e-006
      1.58000      1.65382 5.33307e-006
      1.58500      1.65382 5.09402e-006
      1.59000      1.65382 4.78996e-006
      1.59500      1.65382 4.61192e-006
      1.60000      1.65382 4.36887e-006
      1.60500      1.65382 4.12382e-006
      1.61000      1.65382 3.94279e-006
      1.61500      1.65382 3.75975e-006
      1.62000      1.65382 3.57672e-006
      1.62500      1.65382 3.45669e-006
      1.63000      1.65382 3.27165e-006
      1.63500      1.65382 3.08462e-006
      1.64000      1.65382 2.96259e-006
      1.64500      1.65382 2.83957e-006
      1.65000      1.65382 2.71554e-006
      1.65500      1.65382 2.59152e-006
      1.66000      1.65382 2.46649e-006
      1.66500      1.65382 2.34047e-006
      1.67000      1.65382 2.21394e-006
      1.67500      1.65382 2.15343e-006
      1.68000      1.65382 2.02541e-006
      1.68500      1.65382 1.96389e-006
      1.69000      1.65382 1.90188e-006
      1.69500      1.65382 1.83987e-006
      1.70000      1.65382 1.70934e-006
      1.70500      1.65382 1.64633e-006
      1.71000      1.65382 1.65083e-006
      1.71500      1.65382 1.58682e-006
      1.72000      1.65382 1.52330e-006
      1.72500      1.65382 1.45829e-006
      1.73000      1.65382 1.46229e-006
      1.73500      1.65382 1.39778e-006
      1.74000      1.65382 1.40128e-006
      1.74500      1.65382 1.40528e-006
      1.75000      1.65382 1.33927e-006
      1.75500      1.65382 1.27325e-006
      1.76000      1.65382 1.27676e-006
      1.76500      1.65382 1.28026e-006
      1.77000      1.65382 1.21324e-006
      1.77500      1.65382 1.21674e-006
      1.78000      1.65382 1.22024e-006
      1.78500      1.65382 1.22324e-006
      1.79000      1.65382 1.15523e-006
      1.79500      1.65382 1.15823e-006
      1.80000      1.65382 1.16173e-006
      1.80500      1.65382 1.09322e-006
      1.81000      1.65382 1.09572e-006
      1.81500      1.65382 1.02671e-006
      1.82000      1.65382 1.02921e-006
      1.82500      1.65382 1.03171e-006
      1.83000      1.65382 1.03471e-006
      1.83500      1.65382 9.64193e-007
      1.84000      1.65382 9.67193e-007
      1.84500      1.65382 9.69694e-007
      1.85000      1.65382 9.72194e-007
      1.85500      1.65382 9.74695e-007
      1.86000      1.65382 9.77195e-007
      1.86500      1.65382 9.79696e-007
      1.87000      1.65382 9.82196e-007
      1.87500      1.65382 9.85197e-007
      1.88000      1.65382 9.87697e-007
      1.88500      1.65382 9.90198e-007
      1.89000      1.65382 9.93199e-007
      1.89500      1.65382 9.95699e-007
      1.90000      1.65382 9.98200e-007
      1.90500      1.65382 1.00070e-006
      1.91000      1.65382 1.00370e-006
      1.91500      1.65382 1.00620e-006
      1.92000      1.65382 1.00920e-006
      1.92500      1.65382 1.01170e-006
      1.93000      1.65382 1.01420e-006
      1.93500      1.65382 1.01670e-006
      1.94000      1.65382 1.01920e-006
      1.94500      1.65382 1.02170e-006
      1.95000      1.65382 1.02470e-006
      1.95500      1.65382 1.02721e-006
      1.96000      1.65382 9.51690e-007
      1.96500      1.65382 9.54191e-007
      1.97000      1.65382 9.56191e-007
      1.97500      1.65382 9.58692e-007
      1.98000      1.65382 9.61192e-007
      1.98500      1.65382 9.63193e-007
      1.99000      1.65382 8.86677e-007
      1.99500      1.65382 9.68194e-007
      2.00000      1.65382 8.91178e-007
      2.00500      1.65382 8.93179e-007
      2.01000      1.65382 8.95179e-007
      2.01500      1.65382 8.97179e-007
      2.02000      1.65382 8.99680e-007
      2.02500      1.65382 9.01680e-007
      2.03000      1.65382 9.04181e-007
      2.03500      1.65382 9.06181e-007
      2.04000      1.65382 9.08682e-007
      2.04500      1.65382 9.10682e-007
      2.05000      1.65382 9.12683e-007
      2.05500      1.65382 8.33167e-007
      2.06000      1.65382 9.17183e-007
      2.06500      1.65382 9.19684e-007
      2.07000      1.65382 9.21684e-007
      2.07500      1.65382 8.41668e-007
      2.08000      1.65382 9.26185e-007
      2.08500      1.65382 8.45669e-007
      2.09000      1.65382 8.47670e-007
      2.09500      1.65382 8.49670e-007
      2.10000      1.65382 8.51670e-007
      2.10500      1.65382 8.53671e-007
      2.11000      1.65382 8.55171e-007
      2.11500      1.65382 8.57171e-007
      2.12000      1.65382 8.59172e-007
      2.12500      1.65382 8.61172e-007
      2.13000      1.65382 8.63673e-007
      2.13500      1.65382 8.65673e-007
      2.14000      1.65382 8.67674e-007
      2.14500      1.65382 8.69674e-007
      2.15000      1.65382 8.71674e-007
      2.15500      1.65382 9.59692e-007
      2.16000      1.65382 9.61692e-007
      2.16500      1.65382 9.64193e-007
      2.17000      1.65382 9.66193e-007
      2.17500      1.65382 9.68694e-007
      2.18000      1.65382 9.70694e-007
      2.18500      1.65382 8.86177e-007
      2.19000      1.65382 8.87678e-007
      2.19500      1.65382 8.89678e-007
      2.20000      1.65382 8.92178e-007
      2.20500      1.65382 8.93679e-007
      2.21000      1.65382 8.95679e-007
      2.21500      1.65382 8.97680e-007
      2.22000      1.65382 8.99680e-007
      2.22500      1.65382 9.01680e-007
      2.23000      1.65382 9.03681e-007
      2.23500      1.65382 9.05681e-007
      2.24000      1.65382 9.07682e-007
      2.24500      1.65382 9.09682e-007
      2.25000      1.65382 9.12182e-007
      2.25500      1.65382 9.14183e-007
      2.26000      1.65382 9.16183e-007
      2.26500      1.65382 9.18184e-007
      2.27000      1.65382 9.20184e-007
      2.27500      1.65382 9.22184e-007
      2.28000      1.65382 9.24185e-007
      2.28500      1.65382 9.26185e-007
      2.29000      1.65382 9.28186e-007
      2.29500      1.65382 9.30186e-007
      2.30000      1.65382 9.32186e-007
      2.30500      1.65382 9.34187e-007
      2.31000      1.65382 9.36187e-007
      2.31500      1.65382 9.38188e-007
      2.32000      1.65382 9.40188e-007
      2.32500      1.65382 9.42188e-007
      2.33000      1.65382 9.44189e-007
      2.33500      1.65382 9.46189e-007
      2.34000      1.65382 9.48690e-007
      2.34500      1.65382 9.50690e-007
      2.35000      1.65382 9.53191e-007
      2.35500      1.65382 9.55191e-007
      2.36000      1.65382 1.05071e-006
      2.36500      1.65382 1.05321e-006
      2.37000      1.65382 1.05521e-006
      2.37500      1.65382 1.05771e-006
      2.38000      1.65382 1.05971e-006
      2.38500      1.65382 1.06221e-006
      2.39000      1.65382 1.06421e-006
      2.39500      1.65382 1.06671e-006
      2.40000      1.65382 1.06871e-006
      2.40500      1.65382 1.07121e-006
      2.41000      1.65382 1.07321e-006
      2.41500      1.65382 1.07572e-006
      2.42000      1.65382 1.07822e-006
      2.42500      1.65382 1.08022e-006
      2.43000      1.65382 1.08272e-006
      2.43500      1.65382 1.08472e-006
      2.44000      1.65382 1.18424e-006
      2.44500      1.65382 1.18674e-006
      2.45000      1.65382 1.18924e-006
      2.45500      1.65382 1.19174e-006
      2.46000      1.65382 1.19424e-006
      2.46500      1.65382 1.19674e-006
      2.47000      1.65382 1.19924e-006
      2.47500      1.65382 1.20174e-006
      2.48000      1.65382 1.20424e-006
      2.48500      1.65382 1.20624e-006
      2.49000      1.65382 1.20874e-006
      2.49500      1.65382 1.21074e-006
      2.50000      1.65382 1.11372e-006
      2.50500      1.65382 1.21574e-006
      2.51000      1.65382 1.11822e-006
      2.51500      1.65382 1.12022e-006
      2.52000      1.65382 1.12222e-006
      2.52500      1.65382 1.12422e-006
      2.53000      1.65382 1.02571e-006
      2.53500      1.65382 1.12873e-006
      2.54000      1.65382 1.02971e-006
      2.54500      1.65382 1.03171e-006
      2.55000      1.65382 1.03421e-006
      2.55500      1.65382 1.03621e-006
      2.56000      1.65382 9.35187e-007
      2.56500      1.65382 9.37688e-007
      2.57000      1.65382 9.39188e-007
      2.57500      1.65382 1.04371e-006
      2.58000      1.65382 9.43189e-007
      2.58500      1.65382 9.44689e-007
      2.59000      1.65382 9.46189e-007
      2.59500      1.65382 1.05121e-006
      2.60000      1.65382 9.49690e-007
