data provided by Paul Lucey in 2006
derived using techniques of Lucey 1998
Forsterite, Fo= 97.0000
minimum grain size (microns)= 0.000000
maximum grain size=(microns) 45.0000
column 1= wavelength, micrometers
column 2= real index
column 3= imaginary index
 
     0.450000      1.64076 6.68434e-006
     0.455000      1.64076 6.58832e-006
     0.460000      1.64076 6.37428e-006
     0.465000      1.64076 6.26925e-006
     0.470000      1.64076 6.10222e-006
     0.475000      1.64076 5.99020e-006
     0.480000      1.64076 5.87417e-006
     0.485000      1.64076 5.81516e-006
     0.490000      1.64076 5.75315e-006
     0.495000      1.64076 5.56611e-006
     0.500000      1.64076 5.49810e-006
     0.505000      1.64076 5.30206e-006
     0.510000      1.64076 5.22805e-006
     0.515000      1.64076 5.02400e-006
     0.520000      1.64076 5.00800e-006
     0.525000      1.64076 4.86097e-006
     0.530000      1.64076 4.84197e-006
     0.535000      1.64076 4.75495e-006
     0.540000      1.64076 4.73295e-006
     0.545000      1.64076 4.70894e-006
     0.550000      1.64076 4.61592e-006
     0.555000      1.64076 4.65793e-006
     0.560000      1.64076 4.56191e-006
     0.565000      1.64076 4.53291e-006
     0.570000      1.64076 4.50190e-006
     0.575000      1.64076 4.54191e-006
     0.580000      1.64076 4.36587e-006
     0.585000      1.64076 4.40388e-006
     0.590000      1.64076 4.36887e-006
     0.595000      1.64076 4.40588e-006
     0.600000      1.64076 4.36887e-006
     0.605000      1.64076 4.32987e-006
     0.610000      1.64076 4.29086e-006
     0.615000      1.64076 4.40188e-006
     0.620000      1.64076 4.36087e-006
     0.625000      1.64076 4.39588e-006
     0.630000      1.64076 4.35387e-006
     0.635000      1.64076 4.38788e-006
     0.640000      1.64076 4.42288e-006
     0.645000      1.64076 4.29786e-006
     0.650000      1.64076 4.41088e-006
     0.655000      1.64076 4.28386e-006
     0.660000      1.64076 4.39788e-006
     0.665000      1.64076 4.34887e-006
     0.670000      1.64076 4.38188e-006
     0.675000      1.64076 4.33087e-006
     0.680000      1.64076 4.36287e-006
     0.685000      1.64076 4.47990e-006
     0.690000      1.64076 4.51290e-006
     0.695000      1.64076 4.54491e-006
     0.700000      1.64076 4.57792e-006
     0.705000      1.64076 4.61092e-006
     0.710000      1.64076 4.64293e-006
     0.715000      1.64076 4.76395e-006
     0.720000      1.64076 4.79796e-006
     0.725000      1.64076 5.01000e-006
     0.730000      1.64076 5.04401e-006
     0.735000      1.64076 5.26005e-006
     0.740000      1.64076 5.29606e-006
     0.745000      1.64076 5.42408e-006
     0.750000      1.64076 5.55311e-006
     0.755000      1.64076 5.68314e-006
     0.760000      1.64076 5.90918e-006
     0.765000      1.64076 6.04221e-006
     0.770000      1.64076 6.17724e-006
     0.775000      1.64076 6.31326e-006
     0.780000      1.64076 6.54731e-006
     0.785000      1.64076 6.78336e-006
     0.790000      1.64076 6.92438e-006
     0.795000      1.64076 7.16443e-006
     0.800000      1.64076 7.30846e-006
     0.805000      1.64076 7.55401e-006
     0.810000      1.64076 7.70104e-006
     0.815000      1.64076 7.95009e-006
     0.820000      1.64076 8.20214e-006
     0.825000      1.64076 8.35517e-006
     0.830000      1.64076 8.61122e-006
     0.835000      1.64076 8.66323e-006
     0.840000      1.64076 8.92328e-006
     0.845000      1.64076 9.08132e-006
     0.850000      1.64076 9.34637e-006
     0.855000      1.64076 9.40138e-006
     0.860000      1.64076 9.45639e-006
     0.865000      1.64076 9.72645e-006
     0.870000      1.64076 9.89048e-006
     0.875000      1.64076 1.00555e-005
     0.880000      1.64076 1.02225e-005
     0.885000      1.64076 1.03906e-005
     0.890000      1.64076 1.04496e-005
     0.895000      1.64076 1.08417e-005
     0.900000      1.64076 1.09027e-005
     0.905000      1.64076 1.10757e-005
     0.910000      1.64076 1.13638e-005
     0.915000      1.64076 1.16528e-005
     0.920000      1.64076 1.18319e-005
     0.925000      1.64076 1.21259e-005
     0.930000      1.64076 1.25385e-005
     0.935000      1.64076 1.28396e-005
     0.940000      1.64076 1.32597e-005
     0.945000      1.64076 1.39198e-005
     0.950000      1.64076 1.41118e-005
     0.955000      1.64076 1.45439e-005
     0.960000      1.64076 1.50990e-005
     0.965000      1.64076 1.57812e-005
     0.970000      1.64076 1.59842e-005
     0.975000      1.64076 1.67994e-005
     0.980000      1.64076 1.73765e-005
     0.985000      1.64076 1.78361e-005
     0.990000      1.64076 1.84232e-005
     0.995000      1.64076 1.90153e-005
      1.00000      1.64076 1.97394e-005
      1.00500      1.64076 2.03436e-005
      1.01000      1.64076 2.08257e-005
      1.01500      1.64076 2.13128e-005
      1.02000      1.64076 2.16748e-005
      1.02500      1.64076 2.21679e-005
      1.03000      1.64076 2.26655e-005
      1.03500      1.64076 2.29066e-005
      1.04000      1.64076 2.32797e-005
      1.04500      1.64076 2.33917e-005
      1.05000      1.64076 2.36357e-005
      1.05500      1.64076 2.38818e-005
      1.06000      1.64076 2.38608e-005
      1.06500      1.64076 2.38388e-005
      1.07000      1.64076 2.38158e-005
      1.07500      1.64076 2.37918e-005
      1.08000      1.64076 2.34937e-005
      1.08500      1.64076 2.33287e-005
      1.09000      1.64076 2.31616e-005
      1.09500      1.64076 2.27165e-005
      1.10000      1.64076 2.24050e-005
      1.10500      1.64076 2.19509e-005
      1.11000      1.64076 2.16318e-005
      1.11500      1.64076 2.13088e-005
      1.12000      1.64076 2.09827e-005
      1.12500      1.64076 2.06526e-005
      1.13000      1.64076 2.03196e-005
      1.13500      1.64076 1.99825e-005
      1.14000      1.64076 1.96424e-005
      1.14500      1.64076 1.95854e-005
      1.15000      1.64076 1.93824e-005
      1.15500      1.64076 1.91773e-005
      1.16000      1.64076 1.88253e-005
      1.16500      1.64076 1.86152e-005
      1.17000      1.64076 1.85492e-005
      1.17500      1.64076 1.84812e-005
      1.18000      1.64076 1.82652e-005
      1.18500      1.64076 1.83422e-005
      1.19000      1.64076 1.79741e-005
      1.19500      1.64076 1.80491e-005
      1.20000      1.64076 1.79751e-005
      1.20500      1.64076 1.79001e-005
      1.21000      1.64076 1.79741e-005
      1.21500      1.64076 1.78961e-005
      1.22000      1.64076 1.76660e-005
      1.22500      1.64076 1.75850e-005
      1.23000      1.64076 1.75030e-005
      1.23500      1.64076 1.74205e-005
      1.24000      1.64076 1.73365e-005
      1.24500      1.64076 1.74065e-005
      1.25000      1.64076 1.71654e-005
      1.25500      1.64076 1.69204e-005
      1.26000      1.64076 1.68314e-005
      1.26500      1.64076 1.65833e-005
      1.27000      1.64076 1.64903e-005
      1.27500      1.64076 1.65553e-005
      1.28000      1.64076 1.64613e-005
      1.28500      1.64076 1.60462e-005
      1.29000      1.64076 1.57872e-005
      1.29500      1.64076 1.56871e-005
      1.30000      1.64076 1.55861e-005
      1.30500      1.64076 1.56461e-005
      1.31000      1.64076 1.53811e-005
      1.31500      1.64076 1.51130e-005
      1.32000      1.64076 1.50060e-005
      1.32500      1.64076 1.47339e-005
      1.33000      1.64076 1.44589e-005
      1.33500      1.64076 1.43479e-005
      1.34000      1.64076 1.42348e-005
      1.34500      1.64076 1.41218e-005
      1.35000      1.64076 1.38388e-005
      1.35500      1.64076 1.40588e-005
      1.36000      1.64076 1.37728e-005
      1.36500      1.64076 1.34847e-005
      1.37000      1.64076 1.31946e-005
      1.37500      1.64076 1.29026e-005
      1.38000      1.64076 1.29496e-005
      1.38500      1.64076 1.26535e-005
      1.39000      1.64076 1.21829e-005
      1.39500      1.64076 1.20539e-005
      1.40000      1.64076 1.19239e-005
      1.40500      1.64076 1.16188e-005
      1.41000      1.64076 1.14858e-005
      1.41500      1.64076 1.11767e-005
      1.42000      1.64076 1.12157e-005
      1.42500      1.64076 1.09027e-005
      1.43000      1.64076 1.05886e-005
      1.43500      1.64076 1.04476e-005
      1.44000      1.64076 1.01285e-005
      1.44500      1.64076 9.98550e-006
      1.45000      1.64076 9.84047e-006
      1.45500      1.64076 9.69544e-006
      1.46000      1.64076 9.54841e-006
      1.46500      1.64076 9.40038e-006
      1.47000      1.64076 9.25135e-006
      1.47500      1.64076 9.10032e-006
      1.48000      1.64076 8.94829e-006
      1.48500      1.64076 8.61322e-006
      1.49000      1.64076 8.64223e-006
      1.49500      1.64076 8.48620e-006
      1.50000      1.64076 8.33017e-006
      1.50500      1.64076 8.35717e-006
      1.51000      1.64076 8.19914e-006
      1.51500      1.64076 7.85307e-006
      1.52000      1.64076 7.69204e-006
      1.52500      1.64076 7.71604e-006
      1.53000      1.64076 7.55401e-006
      1.53500      1.64076 7.38948e-006
      1.54000      1.64076 7.41348e-006
      1.54500      1.64076 7.24745e-006
      1.55000      1.64076 7.08042e-006
      1.55500      1.64076 7.29346e-006
      1.56000      1.64076 7.12542e-006
      1.56500      1.64076 6.95539e-006
      1.57000      1.64076 6.97840e-006
      1.57500      1.64076 6.80636e-006
      1.58000      1.64076 6.63333e-006
      1.58500      1.64076 6.65433e-006
      1.59000      1.64076 6.67534e-006
      1.59500      1.64076 6.69634e-006
      1.60000      1.64076 6.71634e-006
      1.60500      1.64076 6.73835e-006
      1.61000      1.64076 6.56131e-006
      1.61500      1.64076 6.58132e-006
      1.62000      1.64076 6.60132e-006
      1.62500      1.64076 6.42228e-006
      1.63000      1.64076 6.44229e-006
      1.63500      1.64076 6.46229e-006
      1.64000      1.64076 6.48130e-006
      1.64500      1.64076 6.50130e-006
      1.65000      1.64076 6.52130e-006
      1.65500      1.64076 6.33727e-006
      1.66000      1.64076 6.15223e-006
      1.66500      1.64076 6.17023e-006
      1.67000      1.64076 5.98420e-006
      1.67500      1.64076 6.00120e-006
      1.68000      1.64076 6.01920e-006
      1.68500      1.64076 6.03721e-006
      1.69000      1.64076 6.05521e-006
      1.69500      1.64076 6.07221e-006
      1.70000      1.64076 5.88218e-006
      1.70500      1.64076 5.89918e-006
      1.71000      1.64076 5.91718e-006
      1.71500      1.64076 5.93419e-006
      1.72000      1.64076 5.95119e-006
      1.72500      1.64076 5.96819e-006
      1.73000      1.64076 5.98620e-006
      1.73500      1.64076 6.00320e-006
      1.74000      1.64076 6.02020e-006
      1.74500      1.64076 6.03821e-006
      1.75000      1.64076 6.05521e-006
      1.75500      1.64076 6.07221e-006
      1.76000      1.64076 6.08922e-006
      1.76500      1.64076 6.10722e-006
      1.77000      1.64076 6.12422e-006
      1.77500      1.64076 6.14123e-006
      1.78000      1.64076 6.15823e-006
      1.78500      1.64076 6.17624e-006
      1.79000      1.64076 5.97319e-006
      1.79500      1.64076 5.99020e-006
      1.80000      1.64076 6.22725e-006
      1.80500      1.64076 6.24525e-006
      1.81000      1.64076 6.26225e-006
      1.81500      1.64076 6.28026e-006
      1.82000      1.64076 6.29726e-006
      1.82500      1.64076 6.31426e-006
      1.83000      1.64076 6.33127e-006
      1.83500      1.64076 6.34827e-006
      1.84000      1.64076 6.36727e-006
      1.84500      1.64076 6.38328e-006
      1.85000      1.64076 6.40028e-006
      1.85500      1.64076 6.41728e-006
      1.86000      1.64076 6.20724e-006
      1.86500      1.64076 6.22324e-006
      1.87000      1.64076 6.47029e-006
      1.87500      1.64076 6.48730e-006
      1.88000      1.64076 6.04221e-006
      1.88500      1.64076 6.29026e-006
      1.89000      1.64076 6.53931e-006
      1.89500      1.64076 6.55631e-006
      1.90000      1.64076 6.57331e-006
      1.90500      1.64076 6.82536e-006
      1.91000      1.64076 6.84337e-006
      1.91500      1.64076 6.86137e-006
      1.92000      1.64076 6.87838e-006
      1.92500      1.64076 6.89738e-006
      1.93000      1.64076 6.91438e-006
      1.93500      1.64076 6.93239e-006
      1.94000      1.64076 6.95039e-006
      1.94500      1.64076 6.96839e-006
      1.95000      1.64076 6.98640e-006
      1.95500      1.64076 7.00440e-006
      1.96000      1.64076 7.02240e-006
      1.96500      1.64076 7.04041e-006
      1.97000      1.64076 6.81636e-006
      1.97500      1.64076 6.83337e-006
      1.98000      1.64076 6.85037e-006
      1.98500      1.64076 6.86737e-006
      1.99000      1.64076 6.88538e-006
      1.99500      1.64076 6.90238e-006
      2.00000      1.64076 6.67434e-006
      2.00500      1.64076 6.69034e-006
      2.01000      1.64076 6.70734e-006
      2.01500      1.64076 6.47630e-006
      2.02000      1.64076 6.74035e-006
      2.02500      1.64076 6.75735e-006
      2.03000      1.64076 6.77335e-006
      2.03500      1.64076 6.54031e-006
      2.04000      1.64076 6.80636e-006
      2.04500      1.64076 6.82336e-006
      2.05000      1.64076 6.84037e-006
      2.05500      1.64076 6.60432e-006
      2.06000      1.64076 6.87337e-006
      2.06500      1.64076 6.89038e-006
      2.07000      1.64076 6.90638e-006
      2.07500      1.64076 6.66933e-006
      2.08000      1.64076 6.68534e-006
      2.08500      1.64076 6.70134e-006
      2.09000      1.64076 6.71634e-006
      2.09500      1.64076 6.73335e-006
      2.10000      1.64076 6.74935e-006
      2.10500      1.64076 6.76535e-006
      2.11000      1.64076 6.78136e-006
      2.11500      1.64076 6.79736e-006
      2.12000      1.64076 6.81336e-006
      2.12500      1.64076 6.82937e-006
      2.13000      1.64076 6.84537e-006
      2.13500      1.64076 6.86137e-006
      2.14000      1.64076 6.87738e-006
      2.14500      1.64076 6.63033e-006
      2.15000      1.64076 6.64533e-006
      2.15500      1.64076 6.66133e-006
      2.16000      1.64076 6.94139e-006
      2.16500      1.64076 6.95739e-006
      2.17000      1.64076 6.70734e-006
      2.17500      1.64076 6.99040e-006
      2.18000      1.64076 7.00640e-006
      2.18500      1.64076 7.02140e-006
      2.19000      1.64076 7.03841e-006
      2.19500      1.64076 7.05541e-006
      2.20000      1.64076 7.07041e-006
      2.20500      1.64076 7.08742e-006
      2.21000      1.64076 7.37447e-006
      2.21500      1.64076 7.39048e-006
      2.22000      1.64076 7.40748e-006
      2.22500      1.64076 7.15143e-006
      2.23000      1.64076 7.44049e-006
      2.23500      1.64076 7.45749e-006
      2.24000      1.64076 7.47449e-006
      2.24500      1.64076 7.49150e-006
      2.25000      1.64076 7.78406e-006
      2.25500      1.64076 7.52500e-006
      2.26000      1.64076 7.54101e-006
      2.26500      1.64076 7.55801e-006
      2.27000      1.64076 7.57501e-006
      2.27500      1.64076 7.59202e-006
      2.28000      1.64076 7.60902e-006
      2.28500      1.64076 7.90608e-006
      2.29000      1.64076 7.92308e-006
      2.29500      1.64076 7.65903e-006
      2.30000      1.64076 7.95709e-006
      2.30500      1.64076 7.97509e-006
      2.31000      1.64076 7.99210e-006
      2.31500      1.64076 8.00910e-006
      2.32000      1.64076 8.02711e-006
      2.32500      1.64076 8.33017e-006
      2.33000      1.64076 8.34817e-006
      2.33500      1.64076 8.36617e-006
      2.34000      1.64076 8.38418e-006
      2.34500      1.64076 8.11412e-006
      2.35000      1.64076 8.13013e-006
      2.35500      1.64076 8.14813e-006
      2.36000      1.64076 8.16513e-006
      2.36500      1.64076 7.89208e-006
      2.37000      1.64076 7.90808e-006
      2.37500      1.64076 8.21614e-006
      2.38000      1.64076 8.23415e-006
      2.38500      1.64076 8.25215e-006
      2.39000      1.64076 8.26915e-006
      2.39500      1.64076 8.28616e-006
      2.40000      1.64076 8.30316e-006
      2.40500      1.64076 8.02510e-006
      2.41000      1.64076 8.33817e-006
      2.41500      1.64076 8.35517e-006
      2.42000      1.64076 8.37217e-006
      2.42500      1.64076 8.09212e-006
      2.43000      1.64076 8.10812e-006
      2.43500      1.64076 8.12613e-006
      2.44000      1.64076 8.14213e-006
      2.44500      1.64076 8.15913e-006
      2.45000      1.64076 8.17614e-006
      2.45500      1.64076 8.49320e-006
      2.46000      1.64076 8.51120e-006
      2.46500      1.64076 8.52821e-006
      2.47000      1.64076 8.54521e-006
      2.47500      1.64076 8.56421e-006
      2.48000      1.64076 8.58022e-006
      2.48500      1.64076 8.90328e-006
      2.49000      1.64076 8.92128e-006
      2.49500      1.64076 8.63323e-006
      2.50000      1.64076 8.65023e-006
      2.50500      1.64076 8.97529e-006
      2.51000      1.64076 8.68524e-006
      2.51500      1.64076 8.70224e-006
      2.52000      1.64076 8.71924e-006
      2.52500      1.64076 8.73725e-006
      2.53000      1.64076 8.75425e-006
      2.53500      1.64076 8.77125e-006
      2.54000      1.64076 8.47620e-006
      2.54500      1.64076 8.80526e-006
      2.55000      1.64076 8.82226e-006
      2.55500      1.64076 8.52520e-006
      2.56000      1.64076 8.54321e-006
      2.56500      1.64076 9.19034e-006
      2.57000      1.64076 8.26015e-006
      2.57500      1.64076 8.90828e-006
      2.58000      1.64076 8.60922e-006
      2.58500      1.64076 8.94429e-006
      2.59000      1.64076 8.64223e-006
      2.59500      1.64076 8.66023e-006
      2.60000      1.64076 8.03611e-006
