data provided by Paul Lucey in 2006
derived using techniques of Lucey 1998
Forsterite, Fo= 90.5000
minimum grain size (microns)= 0.000000
maximum grain size=(microns) 45.0000
column 1= wavelength, micrometers
column 2= real index
column 3= imaginary index
 
     0.300000      1.65324 9.99975e-005
     0.305000      1.65324 9.72355e-005
     0.310000      1.65324 8.75720e-005
     0.315000      1.65324 7.76320e-005
     0.320000      1.65324 6.96324e-005
     0.325000      1.65324 6.18509e-005
     0.330000      1.65324 5.38228e-005
     0.335000      1.65324 4.78251e-005
     0.340000      1.65324 4.25015e-005
     0.345000      1.65324 3.80731e-005
     0.350000      1.65324 3.39918e-005
     0.355000      1.65324 3.09757e-005
     0.360000      1.65324 2.80081e-005
     0.365000      1.65324 2.60582e-005
     0.370000      1.65324 2.42128e-005
     0.375000      1.65324 2.24260e-005
     0.380000      1.65324 2.10927e-005
     0.385000      1.65324 1.99265e-005
     0.390000      1.65324 1.85302e-005
     0.395000      1.65324 1.76560e-005
     0.400000      1.65324 1.68604e-005
     0.405000      1.65324 1.59412e-005
     0.410000      1.65324 1.55161e-005
     0.415000      1.65324 1.47630e-005
     0.420000      1.65324 1.42539e-005
     0.425000      1.65324 1.37848e-005
     0.430000      1.65324 1.33007e-005
     0.435000      1.65324 1.28576e-005
     0.440000      1.65324 1.25675e-005
     0.445000      1.65324 1.23220e-005
     0.450000      1.65324 1.20689e-005
     0.455000      1.65324 1.16948e-005
     0.460000      1.65324 1.12538e-005
     0.465000      1.65324 1.10307e-005
     0.470000      1.65324 1.08007e-005
     0.475000      1.65324 1.03886e-005
     0.480000      1.65324 1.01425e-005
     0.485000      1.65324 9.88948e-006
     0.490000      1.65324 9.69044e-006
     0.495000      1.65324 9.48540e-006
     0.500000      1.65324 8.96829e-006
     0.505000      1.65324 8.62422e-006
     0.510000      1.65324 8.33517e-006
     0.515000      1.65324 8.16513e-006
     0.520000      1.65324 7.92708e-006
     0.525000      1.65324 7.61902e-006
     0.530000      1.65324 7.43349e-006
     0.535000      1.65324 7.37247e-006
     0.540000      1.65324 7.17844e-006
     0.545000      1.65324 6.98040e-006
     0.550000      1.65324 6.97740e-006
     0.555000      1.65324 6.90538e-006
     0.560000      1.65324 6.83137e-006
     0.565000      1.65324 6.82336e-006
     0.570000      1.65324 6.81536e-006
     0.575000      1.65324 6.80536e-006
     0.580000      1.65324 6.86437e-006
     0.585000      1.65324 6.92338e-006
     0.590000      1.65324 6.91138e-006
     0.595000      1.65324 6.96939e-006
     0.600000      1.65324 7.02841e-006
     0.605000      1.65324 7.08642e-006
     0.610000      1.65324 7.21944e-006
     0.615000      1.65324 7.35347e-006
     0.620000      1.65324 7.41248e-006
     0.625000      1.65324 7.54901e-006
     0.630000      1.65324 7.60902e-006
     0.635000      1.65324 7.66903e-006
     0.640000      1.65324 7.73005e-006
     0.645000      1.65324 7.63303e-006
     0.650000      1.65324 7.69304e-006
     0.655000      1.65324 7.67203e-006
     0.660000      1.65324 7.65103e-006
     0.665000      1.65324 7.78906e-006
     0.670000      1.65324 7.76705e-006
     0.675000      1.65324 7.82507e-006
     0.680000      1.65324 7.96509e-006
     0.685000      1.65324 8.02410e-006
     0.690000      1.65324 8.16613e-006
     0.695000      1.65324 8.39418e-006
     0.700000      1.65324 8.45419e-006
     0.705000      1.65324 8.60022e-006
     0.710000      1.65324 8.83427e-006
     0.715000      1.65324 9.07031e-006
     0.720000      1.65324 9.13333e-006
     0.725000      1.65324 9.46139e-006
     0.730000      1.65324 9.70444e-006
     0.735000      1.65324 9.95049e-006
     0.740000      1.65324 1.02886e-005
     0.745000      1.65324 1.06306e-005
     0.750000      1.65324 1.10677e-005
     0.755000      1.65324 1.16938e-005
     0.760000      1.65324 1.17719e-005
     0.765000      1.65324 1.22229e-005
     0.770000      1.65324 1.26795e-005
     0.775000      1.65324 1.33307e-005
     0.780000      1.65324 1.38948e-005
     0.785000      1.65324 1.43689e-005
     0.790000      1.65324 1.50410e-005
     0.795000      1.65324 1.54291e-005
     0.800000      1.65324 1.59202e-005
     0.805000      1.65324 1.66133e-005
     0.810000      1.65324 1.70164e-005
     0.815000      1.65324 1.75220e-005
     0.820000      1.65324 1.82361e-005
     0.825000      1.65324 1.86532e-005
     0.830000      1.65324 1.90733e-005
     0.835000      1.65324 1.96014e-005
     0.840000      1.65324 2.02375e-005
     0.845000      1.65324 2.04626e-005
     0.850000      1.65324 2.11097e-005
     0.855000      1.65324 2.14458e-005
     0.860000      1.65324 2.19979e-005
     0.865000      1.65324 2.23400e-005
     0.870000      1.65324 2.27936e-005
     0.875000      1.65324 2.30326e-005
     0.880000      1.65324 2.36017e-005
     0.885000      1.65324 2.40658e-005
     0.890000      1.65324 2.45339e-005
     0.895000      1.65324 2.51170e-005
     0.900000      1.65324 2.57051e-005
     0.905000      1.65324 2.64123e-005
     0.910000      1.65324 2.71254e-005
     0.915000      1.65324 2.77310e-005
     0.920000      1.65324 2.84572e-005
     0.925000      1.65324 2.94214e-005
     0.930000      1.65324 3.02796e-005
     0.935000      1.65324 3.12638e-005
     0.940000      1.65324 3.22570e-005
     0.945000      1.65324 3.36167e-005
     0.950000      1.65324 3.46319e-005
     0.955000      1.65324 3.60192e-005
     0.960000      1.65324 3.71784e-005
     0.965000      1.65324 3.84722e-005
     0.970000      1.65324 4.01475e-005
     0.975000      1.65324 4.15938e-005
     0.980000      1.65324 4.29306e-005
     0.985000      1.65324 4.45319e-005
     0.990000      1.65324 4.60242e-005
     0.995000      1.65324 4.75310e-005
      1.00000      1.65324 4.91813e-005
      1.00500      1.65324 5.04616e-005
      1.01000      1.65324 5.20139e-005
      1.01500      1.65324 5.30566e-005
      1.02000      1.65324 5.43729e-005
      1.02500      1.65324 5.51690e-005
      1.03000      1.65324 5.63723e-005
      1.03500      1.65324 5.73165e-005
      1.04000      1.65324 5.79981e-005
      1.04500      1.65324 5.82772e-005
      1.05000      1.65324 5.88283e-005
      1.05500      1.65324 5.89713e-005
      1.06000      1.65324 5.89763e-005
      1.06500      1.65324 5.87022e-005
      1.07000      1.65324 5.87002e-005
      1.07500      1.65324 5.78611e-005
      1.08000      1.65324 5.75710e-005
      1.08500      1.65324 5.67163e-005
      1.09000      1.65324 5.59932e-005
      1.09500      1.65324 5.52621e-005
      1.10000      1.65324 5.43829e-005
      1.10500      1.65324 5.34947e-005
      1.11000      1.65324 5.24550e-005
      1.11500      1.65324 5.15498e-005
      1.12000      1.65324 5.07787e-005
      1.12500      1.65324 4.99995e-005
      1.13000      1.65324 4.90693e-005
      1.13500      1.65324 4.85642e-005
      1.14000      1.65324 4.79081e-005
      1.14500      1.65324 4.72455e-005
      1.15000      1.65324 4.65763e-005
      1.15500      1.65324 4.60462e-005
      1.16000      1.65324 4.56581e-005
      1.16500      1.65324 4.51180e-005
      1.17000      1.65324 4.47199e-005
      1.17500      1.65324 4.43169e-005
      1.18000      1.65324 4.42078e-005
      1.18500      1.65324 4.37968e-005
      1.19000      1.65324 4.33817e-005
      1.19500      1.65324 4.34127e-005
      1.20000      1.65324 4.26875e-005
      1.20500      1.65324 4.22590e-005
      1.21000      1.65324 4.19779e-005
      1.21500      1.65324 4.18459e-005
      1.22000      1.65324 4.15588e-005
      1.22500      1.65324 4.12678e-005
      1.23000      1.65324 4.08187e-005
      1.23500      1.65324 4.06746e-005
      1.24000      1.65324 4.02175e-005
      1.24500      1.65324 3.99125e-005
      1.25000      1.65324 3.94464e-005
      1.25500      1.65324 3.92904e-005
      1.26000      1.65324 3.86592e-005
      1.26500      1.65324 3.84962e-005
      1.27000      1.65324 3.80151e-005
      1.27500      1.65324 3.76870e-005
      1.28000      1.65324 3.71964e-005
      1.28500      1.65324 3.68614e-005
      1.29000      1.65324 3.65233e-005
      1.29500      1.65324 3.61812e-005
      1.30000      1.65324 3.55121e-005
      1.30500      1.65324 3.51620e-005
      1.31000      1.65324 3.43209e-005
      1.31500      1.65324 3.36367e-005
      1.32000      1.65324 3.32737e-005
      1.32500      1.65324 3.27425e-005
      1.33000      1.65324 3.22079e-005
      1.33500      1.65324 3.15038e-005
      1.34000      1.65324 3.09587e-005
      1.34500      1.65324 3.04096e-005
      1.35000      1.65324 2.95244e-005
      1.35500      1.65324 2.92994e-005
      1.36000      1.65324 2.87372e-005
      1.36500      1.65324 2.81701e-005
      1.37000      1.65324 2.74315e-005
      1.37500      1.65324 2.71934e-005
      1.38000      1.65324 2.61062e-005
      1.38500      1.65324 2.63703e-005
      1.39000      1.65324 2.52721e-005
      1.39500      1.65324 2.53621e-005
      1.40000      1.65324 2.49390e-005
      1.40500      1.65324 2.39948e-005
      1.41000      1.65324 2.35627e-005
      1.41500      1.65324 2.27816e-005
      1.42000      1.65324 2.25145e-005
      1.42500      1.65324 2.20719e-005
      1.43000      1.65324 2.12768e-005
      1.43500      1.65324 2.10007e-005
      1.44000      1.65324 2.03716e-005
      1.44500      1.65324 2.00895e-005
      1.45000      1.65324 1.96294e-005
      1.45500      1.65324 1.89883e-005
      1.46000      1.65324 1.85212e-005
      1.46500      1.65324 1.82281e-005
      1.47000      1.65324 1.77540e-005
      1.47500      1.65324 1.74565e-005
      1.48000      1.65324 1.69764e-005
      1.48500      1.65324 1.66733e-005
      1.49000      1.65324 1.61872e-005
      1.49500      1.65324 1.58782e-005
      1.50000      1.65324 1.55681e-005
      1.50500      1.65324 1.52551e-005
      1.51000      1.65324 1.49400e-005
      1.51500      1.65324 1.46219e-005
      1.52000      1.65324 1.43029e-005
      1.52500      1.65324 1.39808e-005
      1.53000      1.65324 1.38408e-005
      1.53500      1.65324 1.35147e-005
      1.54000      1.65324 1.31866e-005
      1.54500      1.65324 1.30426e-005
      1.55000      1.65324 1.28976e-005
      1.55500      1.65324 1.27506e-005
      1.56000      1.65324 1.26035e-005
      1.56500      1.65324 1.26435e-005
      1.57000      1.65324 1.23050e-005
      1.57500      1.65324 1.21539e-005
      1.58000      1.65324 1.20019e-005
      1.58500      1.65324 1.18479e-005
      1.59000      1.65324 1.16938e-005
      1.59500      1.65324 1.17298e-005
      1.60000      1.65324 1.13808e-005
      1.60500      1.65324 1.14158e-005
      1.61000      1.65324 1.12578e-005
      1.61500      1.65324 1.10977e-005
      1.62000      1.65324 1.11317e-005
      1.62500      1.65324 1.11657e-005
      1.63000      1.65324 1.10047e-005
      1.63500      1.65324 1.10377e-005
      1.64000      1.65324 1.08737e-005
      1.64500      1.65324 1.07086e-005
      1.65000      1.65324 1.07416e-005
      1.65500      1.65324 1.07737e-005
      1.66000      1.65324 1.08057e-005
      1.66500      1.65324 1.06386e-005
      1.67000      1.65324 1.06706e-005
      1.67500      1.65324 1.07016e-005
      1.68000      1.65324 1.05316e-005
      1.68500      1.65324 1.07657e-005
      1.69000      1.65324 1.07977e-005
      1.69500      1.65324 1.06256e-005
      1.70000      1.65324 1.04516e-005
      1.70500      1.65324 1.04826e-005
      1.71000      1.65324 1.05136e-005
      1.71500      1.65324 1.05446e-005
      1.72000      1.65324 1.05746e-005
      1.72500      1.65324 1.03976e-005
      1.73000      1.65324 1.06356e-005
      1.73500      1.65324 1.04576e-005
      1.74000      1.65324 1.04886e-005
      1.74500      1.65324 1.05186e-005
      1.75000      1.65324 1.05486e-005
      1.75500      1.65324 1.07897e-005
      1.76000      1.65324 1.06086e-005
      1.76500      1.65324 1.06386e-005
      1.77000      1.65324 1.06686e-005
      1.77500      1.65324 1.06986e-005
      1.78000      1.65324 1.07286e-005
      1.78500      1.65324 1.07597e-005
      1.79000      1.65324 1.07897e-005
      1.79500      1.65324 1.06036e-005
      1.80000      1.65324 1.08497e-005
      1.80500      1.65324 1.06626e-005
      1.81000      1.65324 1.06916e-005
      1.81500      1.65324 1.07206e-005
      1.82000      1.65324 1.07506e-005
      1.82500      1.65324 1.05606e-005
      1.83000      1.65324 1.05896e-005
      1.83500      1.65324 1.06186e-005
      1.84000      1.65324 1.06476e-005
      1.84500      1.65324 1.06766e-005
      1.85000      1.65324 1.09277e-005
      1.85500      1.65324 1.09577e-005
      1.86000      1.65324 1.09867e-005
      1.86500      1.65324 1.07917e-005
      1.87000      1.65324 1.10467e-005
      1.87500      1.65324 1.13018e-005
      1.88000      1.65324 1.13318e-005
      1.88500      1.65324 1.13628e-005
      1.89000      1.65324 1.18479e-005
      1.89500      1.65324 1.21079e-005
      1.90000      1.65324 1.28266e-005
      1.90500      1.65324 1.33207e-005
      1.91000      1.65324 1.33557e-005
      1.91500      1.65324 1.33907e-005
      1.92000      1.65324 1.34257e-005
      1.92500      1.65324 1.34597e-005
      1.93000      1.65324 1.32617e-005
      1.93500      1.65324 1.30636e-005
      1.94000      1.65324 1.30966e-005
      1.94500      1.65324 1.28966e-005
      1.95000      1.65324 1.26945e-005
      1.95500      1.65324 1.27265e-005
      1.96000      1.65324 1.27596e-005
      1.96500      1.65324 1.25545e-005
      1.97000      1.65324 1.25865e-005
      1.97500      1.65324 1.23800e-005
      1.98000      1.65324 1.21739e-005
      1.98500      1.65324 1.22039e-005
      1.99000      1.65324 1.22349e-005
      1.99500      1.65324 1.20249e-005
      2.00000      1.65324 1.20549e-005
      2.00500      1.65324 1.18439e-005
      2.01000      1.65324 1.18729e-005
      2.01500      1.65324 1.16598e-005
      2.02000      1.65324 1.16888e-005
      2.02500      1.65324 1.17178e-005
      2.03000      1.65324 1.17468e-005
      2.03500      1.65324 1.15308e-005
      2.04000      1.65324 1.15588e-005
      2.04500      1.65324 1.15868e-005
      2.05000      1.65324 1.16158e-005
      2.05500      1.65324 1.16438e-005
      2.06000      1.65324 1.16718e-005
      2.06500      1.65324 1.14518e-005
      2.07000      1.65324 1.17288e-005
      2.07500      1.65324 1.15078e-005
      2.08000      1.65324 1.15348e-005
      2.08500      1.65324 1.15628e-005
      2.09000      1.65324 1.15898e-005
      2.09500      1.65324 1.16178e-005
      2.10000      1.65324 1.13928e-005
      2.10500      1.65324 1.14198e-005
      2.11000      1.65324 1.14468e-005
      2.11500      1.65324 1.12197e-005
      2.12000      1.65324 1.12457e-005
      2.12500      1.65324 1.12728e-005
      2.13000      1.65324 1.12988e-005
      2.13500      1.65324 1.13258e-005
      2.14000      1.65324 1.16098e-005
      2.14500      1.65324 1.16368e-005
      2.15000      1.65324 1.16638e-005
      2.15500      1.65324 1.16918e-005
      2.16000      1.65324 1.17188e-005
      2.16500      1.65324 1.20059e-005
      2.17000      1.65324 1.17729e-005
      2.17500      1.65324 1.17999e-005
      2.18000      1.65324 1.18269e-005
      2.18500      1.65324 1.15918e-005
      2.19000      1.65324 1.16178e-005
      2.19500      1.65324 1.16438e-005
      2.20000      1.65324 1.16708e-005
      2.20500      1.65324 1.16968e-005
      2.21000      1.65324 1.17238e-005
      2.21500      1.65324 1.17498e-005
      2.22000      1.65324 1.15098e-005
      2.22500      1.65324 1.18029e-005
      2.23000      1.65324 1.15618e-005
      2.23500      1.65324 1.15878e-005
      2.24000      1.65324 1.18829e-005
      2.24500      1.65324 1.19079e-005
      2.25000      1.65324 1.19359e-005
      2.25500      1.65324 1.19619e-005
      2.26000      1.65324 1.19879e-005
      2.26500      1.65324 1.20149e-005
      2.27000      1.65324 1.20419e-005
      2.27500      1.65324 1.20689e-005
      2.28000      1.65324 1.23700e-005
      2.28500      1.65324 1.23970e-005
      2.29000      1.65324 1.24240e-005
      2.29500      1.65324 1.27265e-005
      2.30000      1.65324 1.27556e-005
      2.30500      1.65324 1.27826e-005
      2.31000      1.65324 1.28106e-005
      2.31500      1.65324 1.25595e-005
      2.32000      1.65324 1.25865e-005
      2.32500      1.65324 1.26135e-005
      2.33000      1.65324 1.26405e-005
      2.33500      1.65324 1.23870e-005
      2.34000      1.65324 1.26955e-005
      2.34500      1.65324 1.30046e-005
      2.35000      1.65324 1.30326e-005
      2.35500      1.65324 1.30596e-005
      2.36000      1.65324 1.33717e-005
      2.36500      1.65324 1.34007e-005
      2.37000      1.65324 1.37137e-005
      2.37500      1.65324 1.37437e-005
      2.38000      1.65324 1.37728e-005
      2.38500      1.65324 1.40878e-005
      2.39000      1.65324 1.41178e-005
      2.39500      1.65324 1.38588e-005
      2.40000      1.65324 1.41768e-005
      2.40500      1.65324 1.39168e-005
      2.41000      1.65324 1.42358e-005
      2.41500      1.65324 1.42659e-005
      2.42000      1.65324 1.45869e-005
      2.42500      1.65324 1.46169e-005
      2.43000      1.65324 1.46469e-005
      2.43500      1.65324 1.49710e-005
      2.44000      1.65324 1.50020e-005
      2.44500      1.65324 1.50330e-005
      2.45000      1.65324 1.53581e-005
      2.45500      1.65324 1.53901e-005
      2.46000      1.65324 1.57171e-005
      2.46500      1.65324 1.54521e-005
      2.47000      1.65324 1.57812e-005
      2.47500      1.65324 1.55151e-005
      2.48000      1.65324 1.58452e-005
      2.48500      1.65324 1.55781e-005
      2.49000      1.65324 1.56091e-005
      2.49500      1.65324 1.56401e-005
      2.50000      1.65324 1.56711e-005
      2.50500      1.65324 1.54011e-005
      2.51000      1.65324 1.54321e-005
      2.51500      1.65324 1.54621e-005
      2.52000      1.65324 1.54941e-005
      2.52500      1.65324 1.55241e-005
      2.53000      1.65324 1.58592e-005
      2.53500      1.65324 1.55851e-005
      2.54000      1.65324 1.56161e-005
      2.54500      1.65324 1.59542e-005
      2.55000      1.65324 1.65993e-005
      2.55500      1.65324 1.47850e-005
      2.56000      1.65324 1.54301e-005
      2.56500      1.65324 1.54601e-005
      2.57000      1.65324 1.58012e-005
      2.57500      1.65324 1.61422e-005
      2.58000      1.65324 1.49300e-005
      2.58500      1.65324 1.62042e-005
      2.59000      1.65324 1.56111e-005
      2.59500      1.65324 1.65793e-005
      2.60000      1.65324 1.34797e-005
