data provided by Paul Lucey in 2006
derived using techniques of Lucey 1998
Forsterite, Fo= 90.5000
minimum grain size (microns)= 45.0000
maximum grain size=(microns) 90.0000
column 1= wavelength, micrometers
column 2= real index
column 3= imaginary index
 
     0.300000      1.65324 9.42529e-005
     0.305000      1.65324 9.34217e-005
     0.310000      1.65324 8.58052e-005
     0.315000      1.65324 7.62032e-005
     0.320000      1.65324 6.72504e-005
     0.325000      1.65324 5.73625e-005
     0.330000      1.65324 4.79691e-005
     0.335000      1.65324 4.04686e-005
     0.340000      1.65324 3.33187e-005
     0.345000      1.65324 2.82251e-005
     0.350000      1.65324 2.38368e-005
     0.355000      1.65324 2.02936e-005
     0.360000      1.65324 1.77350e-005
     0.365000      1.65324 1.58232e-005
     0.370000      1.65324 1.44659e-005
     0.375000      1.65324 1.34787e-005
     0.380000      1.65324 1.27756e-005
     0.385000      1.65324 1.21809e-005
     0.390000      1.65324 1.16268e-005
     0.395000      1.65324 1.11307e-005
     0.400000      1.65324 1.08397e-005
     0.405000      1.65324 9.92548e-006
     0.410000      1.65324 9.63043e-006
     0.415000      1.65324 9.21634e-006
     0.420000      1.65324 9.01430e-006
     0.425000      1.65324 8.82427e-006
     0.430000      1.65324 8.60922e-006
     0.435000      1.65324 8.40718e-006
     0.440000      1.65324 8.17914e-006
     0.445000      1.65324 8.25315e-006
     0.450000      1.65324 8.38418e-006
     0.455000      1.65324 8.20214e-006
     0.460000      1.65324 7.77806e-006
     0.465000      1.65324 7.50400e-006
     0.470000      1.65324 7.16343e-006
     0.475000      1.65324 6.71434e-006
     0.480000      1.65324 6.31826e-006
     0.485000      1.65324 6.36327e-006
     0.490000      1.65324 6.22224e-006
     0.495000      1.65324 6.09822e-006
     0.500000      1.65324 5.44709e-006
     0.505000      1.65324 5.03901e-006
     0.510000      1.65324 4.79196e-006
     0.515000      1.65324 4.68994e-006
     0.520000      1.65324 4.49790e-006
     0.525000      1.65324 4.34587e-006
     0.530000      1.65324 4.16883e-006
     0.535000      1.65324 3.96579e-006
     0.540000      1.65324 3.78176e-006
     0.545000      1.65324 3.59272e-006
     0.550000      1.65324 3.46769e-006
     0.555000      1.65324 3.38568e-006
     0.560000      1.65324 3.32566e-006
     0.565000      1.65324 3.30866e-006
     0.570000      1.65324 3.33767e-006
     0.575000      1.65324 3.36767e-006
     0.580000      1.65324 3.42068e-006
     0.585000      1.65324 3.47369e-006
     0.590000      1.65324 3.55171e-006
     0.595000      1.65324 3.62973e-006
     0.600000      1.65324 3.70974e-006
     0.605000      1.65324 3.81476e-006
     0.610000      1.65324 3.94679e-006
     0.615000      1.65324 4.10482e-006
     0.620000      1.65324 4.23985e-006
     0.625000      1.65324 4.40188e-006
     0.630000      1.65324 4.51490e-006
     0.635000      1.65324 4.60292e-006
     0.640000      1.65324 4.58692e-006
     0.645000      1.65324 4.59592e-006
     0.650000      1.65324 4.55191e-006
     0.655000      1.65324 4.55991e-006
     0.660000      1.65324 4.59492e-006
     0.665000      1.65324 4.62893e-006
     0.670000      1.65324 4.69194e-006
     0.675000      1.65324 4.75395e-006
     0.680000      1.65324 4.87297e-006
     0.685000      1.65324 5.05001e-006
     0.690000      1.65324 5.28506e-006
     0.695000      1.65324 5.55311e-006
     0.700000      1.65324 5.79516e-006
     0.705000      1.65324 6.09822e-006
     0.710000      1.65324 6.43529e-006
     0.715000      1.65324 6.77736e-006
     0.720000      1.65324 7.18344e-006
     0.725000      1.65324 7.62602e-006
     0.730000      1.65324 8.04511e-006
     0.735000      1.65324 8.56121e-006
     0.740000      1.65324 9.11632e-006
     0.745000      1.65324 9.64843e-006
     0.750000      1.65324 1.04746e-005
     0.755000      1.65324 1.10887e-005
     0.760000      1.65324 1.18419e-005
     0.765000      1.65324 1.26395e-005
     0.770000      1.65324 1.34497e-005
     0.775000      1.65324 1.42729e-005
     0.780000      1.65324 1.51420e-005
     0.785000      1.65324 1.60932e-005
     0.790000      1.65324 1.69554e-005
     0.795000      1.65324 1.77961e-005
     0.800000      1.65324 1.87192e-005
     0.805000      1.65324 1.95144e-005
     0.810000      1.65324 2.04996e-005
     0.815000      1.65324 2.13548e-005
     0.820000      1.65324 2.22580e-005
     0.825000      1.65324 2.30996e-005
     0.830000      1.65324 2.39528e-005
     0.835000      1.65324 2.47790e-005
     0.840000      1.65324 2.55391e-005
     0.845000      1.65324 2.62312e-005
     0.850000      1.65324 2.69704e-005
     0.855000      1.65324 2.77190e-005
     0.860000      1.65324 2.82772e-005
     0.865000      1.65324 2.91203e-005
     0.870000      1.65324 2.95704e-005
     0.875000      1.65324 3.04306e-005
     0.880000      1.65324 3.12608e-005
     0.885000      1.65324 3.20169e-005
     0.890000      1.65324 3.26975e-005
     0.895000      1.65324 3.36387e-005
     0.900000      1.65324 3.47179e-005
     0.905000      1.65324 3.56391e-005
     0.910000      1.65324 3.67013e-005
     0.915000      1.65324 3.79071e-005
     0.920000      1.65324 3.92183e-005
     0.925000      1.65324 4.08147e-005
     0.930000      1.65324 4.23000e-005
     0.935000      1.65324 4.42649e-005
     0.940000      1.65324 4.60292e-005
     0.945000      1.65324 4.78681e-005
     0.950000      1.65324 5.01645e-005
     0.955000      1.65324 5.24520e-005
     0.960000      1.65324 5.51240e-005
     0.965000      1.65324 5.73475e-005
     0.970000      1.65324 6.00615e-005
     0.975000      1.65324 6.26215e-005
     0.980000      1.65324 6.52250e-005
     0.985000      1.65324 6.79281e-005
     0.990000      1.65324 7.04636e-005
     0.995000      1.65324 7.32056e-005
      1.00000      1.65324 7.57181e-005
      1.00500      1.65324 7.81021e-005
      1.01000      1.65324 8.08637e-005
      1.01500      1.65324 8.29816e-005
      1.02000      1.65324 8.48960e-005
      1.02500      1.65324 8.69504e-005
      1.03000      1.65324 8.85572e-005
      1.03500      1.65324 8.98225e-005
      1.04000      1.65324 9.10377e-005
      1.04500      1.65324 9.18389e-005
      1.05000      1.65324 9.25825e-005
      1.05500      1.65324 9.29626e-005
      1.06000      1.65324 9.32186e-005
      1.06500      1.65324 9.32266e-005
      1.07000      1.65324 9.27986e-005
      1.07500      1.65324 9.18699e-005
      1.08000      1.65324 9.09367e-005
      1.08500      1.65324 8.96274e-005
      1.09000      1.65324 8.83122e-005
      1.09500      1.65324 8.66253e-005
      1.10000      1.65324 8.49350e-005
      1.10500      1.65324 8.34237e-005
      1.11000      1.65324 8.19089e-005
      1.11500      1.65324 8.03906e-005
      1.12000      1.65324 7.88683e-005
      1.12500      1.65324 7.74015e-005
      1.13000      1.65324 7.58112e-005
      1.13500      1.65324 7.48180e-005
      1.14000      1.65324 7.33987e-005
      1.14500      1.65324 7.24560e-005
      1.15000      1.65324 7.12067e-005
      1.15500      1.65324 7.01935e-005
      1.16000      1.65324 6.92353e-005
      1.16500      1.65324 6.84512e-005
      1.17000      1.65324 6.77220e-005
      1.17500      1.65324 6.70484e-005
      1.18000      1.65324 6.63093e-005
      1.18500      1.65324 6.59272e-005
      1.19000      1.65324 6.52390e-005
      1.19500      1.65324 6.47870e-005
      1.20000      1.65324 6.45129e-005
      1.20500      1.65324 6.40538e-005
      1.21000      1.65324 6.37718e-005
      1.21500      1.65324 6.31826e-005
      1.22000      1.65324 6.27105e-005
      1.22500      1.65324 6.20509e-005
      1.23000      1.65324 6.15098e-005
      1.23500      1.65324 6.10247e-005
      1.24000      1.65324 6.04746e-005
      1.24500      1.65324 5.98585e-005
      1.25000      1.65324 5.91773e-005
      1.25500      1.65324 5.83682e-005
      1.26000      1.65324 5.76780e-005
      1.26500      1.65324 5.69834e-005
      1.27000      1.65324 5.63453e-005
      1.27500      1.65324 5.58882e-005
      1.28000      1.65324 5.49960e-005
      1.28500      1.65324 5.40978e-005
      1.29000      1.65324 5.32577e-005
      1.29500      1.65324 5.22279e-005
      1.30000      1.65324 5.14408e-005
      1.30500      1.65324 5.05256e-005
      1.31000      1.65324 4.96674e-005
      1.31500      1.65324 4.86822e-005
      1.32000      1.65324 4.73835e-005
      1.32500      1.65324 4.64513e-005
      1.33000      1.65324 4.52671e-005
      1.33500      1.65324 4.43879e-005
      1.34000      1.65324 4.34417e-005
      1.34500      1.65324 4.25535e-005
      1.35000      1.65324 4.17849e-005
      1.35500      1.65324 4.15068e-005
      1.36000      1.65324 4.10397e-005
      1.36500      1.65324 3.92684e-005
      1.37000      1.65324 3.79891e-005
      1.37500      1.65324 3.65823e-005
      1.38000      1.65324 3.63443e-005
      1.38500      1.65324 3.45589e-005
      1.39000      1.65324 3.33257e-005
      1.39500      1.65324 3.23960e-005
      1.40000      1.65324 3.14008e-005
      1.40500      1.65324 3.01555e-005
      1.41000      1.65324 2.88453e-005
      1.41500      1.65324 2.77761e-005
      1.42000      1.65324 2.66423e-005
      1.42500      1.65324 2.58742e-005
      1.43000      1.65324 2.48550e-005
      1.43500      1.65324 2.38328e-005
      1.44000      1.65324 2.29296e-005
      1.44500      1.65324 2.21459e-005
      1.45000      1.65324 2.12968e-005
      1.45500      1.65324 2.04436e-005
      1.46000      1.65324 1.97104e-005
      1.46500      1.65324 1.89743e-005
      1.47000      1.65324 1.83572e-005
      1.47500      1.65324 1.74905e-005
      1.48000      1.65324 1.68054e-005
      1.48500      1.65324 1.60552e-005
      1.49000      1.65324 1.53631e-005
      1.49500      1.65324 1.47920e-005
      1.50000      1.65324 1.40938e-005
      1.50500      1.65324 1.36417e-005
      1.51000      1.65324 1.30616e-005
      1.51500      1.65324 1.24790e-005
      1.52000      1.65324 1.20189e-005
      1.52500      1.65324 1.14938e-005
      1.53000      1.65324 1.10277e-005
      1.53500      1.65324 1.04966e-005
      1.54000      1.65324 1.00895e-005
      1.54500      1.65324 9.67944e-006
      1.55000      1.65324 9.26635e-006
      1.55500      1.65324 8.91628e-006
      1.56000      1.65324 8.62622e-006
      1.56500      1.65324 8.33517e-006
      1.57000      1.65324 7.97809e-006
      1.57500      1.65324 7.61902e-006
      1.58000      1.65324 7.38648e-006
      1.58500      1.65324 7.08842e-006
      1.59000      1.65324 6.85237e-006
      1.59500      1.65324 6.61532e-006
      1.60000      1.65324 6.44129e-006
      1.60500      1.65324 6.20124e-006
      1.61000      1.65324 6.02521e-006
      1.61500      1.65324 5.78316e-006
      1.62000      1.65324 5.60412e-006
      1.62500      1.65324 5.42508e-006
      1.63000      1.65324 5.31006e-006
      1.63500      1.65324 5.12803e-006
      1.64000      1.65324 5.01100e-006
      1.64500      1.65324 4.89398e-006
      1.65000      1.65324 4.77596e-006
      1.65500      1.65324 4.58992e-006
      1.66000      1.65324 4.47089e-006
      1.66500      1.65324 4.28286e-006
      1.67000      1.65324 4.16083e-006
      1.67500      1.65324 4.10582e-006
      1.68000      1.65324 3.98280e-006
      1.68500      1.65324 3.92779e-006
      1.69000      1.65324 3.80276e-006
      1.69500      1.65324 3.74675e-006
      1.70000      1.65324 3.62072e-006
      1.70500      1.65324 3.56271e-006
      1.71000      1.65324 3.50470e-006
      1.71500      1.65324 3.44569e-006
      1.72000      1.65324 3.45569e-006
      1.72500      1.65324 3.32767e-006
      1.73000      1.65324 3.33667e-006
      1.73500      1.65324 3.34667e-006
      1.74000      1.65324 3.28666e-006
      1.74500      1.65324 3.22565e-006
      1.75000      1.65324 3.16463e-006
      1.75500      1.65324 3.10362e-006
      1.76000      1.65324 3.11262e-006
      1.76500      1.65324 3.19164e-006
      1.77000      1.65324 3.05861e-006
      1.77500      1.65324 2.99660e-006
      1.78000      1.65324 3.00460e-006
      1.78500      1.65324 3.01360e-006
      1.79000      1.65324 3.02160e-006
      1.79500      1.65324 2.95759e-006
      1.80000      1.65324 2.96559e-006
      1.80500      1.65324 2.90158e-006
      1.81000      1.65324 2.83757e-006
      1.81500      1.65324 2.77255e-006
      1.82000      1.65324 2.78056e-006
      1.82500      1.65324 2.78756e-006
      1.83000      1.65324 2.72254e-006
      1.83500      1.65324 2.72955e-006
      1.84000      1.65324 2.73655e-006
      1.84500      1.65324 2.67053e-006
      1.85000      1.65324 2.75155e-006
      1.85500      1.65324 2.75855e-006
      1.86000      1.65324 2.69154e-006
      1.86500      1.65324 2.62452e-006
      1.87000      1.65324 2.78156e-006
      1.87500      1.65324 2.71354e-006
      1.88000      1.65324 2.57051e-006
      1.88500      1.65324 2.57752e-006
      1.89000      1.65324 2.58352e-006
      1.89500      1.65324 2.59052e-006
      1.90000      1.65324 2.67353e-006
      1.90500      1.65324 2.68054e-006
      1.91000      1.65324 2.68754e-006
      1.91500      1.65324 2.61852e-006
      1.92000      1.65324 2.62452e-006
      1.92500      1.65324 2.55451e-006
      1.93000      1.65324 2.56151e-006
      1.93500      1.65324 2.56751e-006
      1.94000      1.65324 2.57452e-006
      1.94500      1.65324 2.50350e-006
      1.95000      1.65324 2.50950e-006
      1.95500      1.65324 2.43799e-006
      1.96000      1.65324 2.44399e-006
      1.96500      1.65324 2.44999e-006
      1.97000      1.65324 2.37748e-006
      1.97500      1.65324 2.38348e-006
      1.98000      1.65324 2.31046e-006
      1.98500      1.65324 2.31596e-006
      1.99000      1.65324 2.32196e-006
      1.99500      1.65324 2.32747e-006
      2.00000      1.65324 2.25345e-006
      2.00500      1.65324 2.25895e-006
      2.01000      1.65324 2.26445e-006
      2.01500      1.65324 2.18994e-006
      2.02000      1.65324 2.19494e-006
      2.02500      1.65324 2.20044e-006
      2.03000      1.65324 2.20594e-006
      2.03500      1.65324 2.21094e-006
      2.04000      1.65324 2.13543e-006
      2.04500      1.65324 2.14043e-006
      2.05000      1.65324 2.14543e-006
      2.05500      1.65324 2.15093e-006
      2.06000      1.65324 2.15593e-006
      2.06500      1.65324 2.16093e-006
      2.07000      1.65324 2.16643e-006
      2.07500      1.65324 2.08842e-006
      2.08000      1.65324 2.09392e-006
      2.08500      1.65324 2.09842e-006
      2.09000      1.65324 2.10342e-006
      2.09500      1.65324 2.10842e-006
      2.10000      1.65324 2.11342e-006
      2.10500      1.65324 2.03441e-006
      2.11000      1.65324 2.03941e-006
      2.11500      1.65324 2.04391e-006
      2.12000      1.65324 2.04891e-006
      2.12500      1.65324 2.05341e-006
      2.13000      1.65324 2.05841e-006
      2.13500      1.65324 2.06341e-006
      2.14000      1.65324 2.06791e-006
      2.14500      1.65324 2.07291e-006
      2.15000      1.65324 2.07792e-006
      2.15500      1.65324 2.08292e-006
      2.16000      1.65324 2.08792e-006
      2.16500      1.65324 2.09242e-006
      2.17000      1.65324 2.09742e-006
      2.17500      1.65324 2.10192e-006
      2.18000      1.65324 2.10692e-006
      2.18500      1.65324 2.02440e-006
      2.19000      1.65324 2.02891e-006
      2.19500      1.65324 2.12142e-006
      2.20000      1.65324 2.03841e-006
      2.20500      1.65324 2.04241e-006
      2.21000      1.65324 2.04741e-006
      2.21500      1.65324 1.96339e-006
      2.22000      1.65324 1.96789e-006
      2.22500      1.65324 1.97239e-006
      2.23000      1.65324 1.97690e-006
      2.23500      1.65324 1.98140e-006
      2.24000      1.65324 1.98540e-006
      2.24500      1.65324 1.98990e-006
      2.25000      1.65324 1.99440e-006
      2.25500      1.65324 1.99890e-006
      2.26000      1.65324 2.00290e-006
      2.26500      1.65324 2.00790e-006
      2.27000      1.65324 2.01190e-006
      2.27500      1.65324 2.01640e-006
      2.28000      1.65324 2.02090e-006
      2.28500      1.65324 2.02490e-006
      2.29000      1.65324 1.93839e-006
      2.29500      1.65324 1.94239e-006
      2.30000      1.65324 1.94639e-006
      2.30500      1.65324 1.95089e-006
      2.31000      1.65324 1.95539e-006
      2.31500      1.65324 1.95939e-006
      2.32000      1.65324 1.96339e-006
      2.32500      1.65324 1.96789e-006
      2.33000      1.65324 1.97189e-006
      2.33500      1.65324 1.97640e-006
      2.34000      1.65324 2.07391e-006
      2.34500      1.65324 2.07842e-006
      2.35000      1.65324 2.08292e-006
      2.35500      1.65324 2.08742e-006
      2.36000      1.65324 2.09192e-006
      2.36500      1.65324 2.09642e-006
      2.37000      1.65324 2.10092e-006
      2.37500      1.65324 2.10542e-006
      2.38000      1.65324 2.10942e-006
      2.38500      1.65324 2.11442e-006
      2.39000      1.65324 2.11842e-006
      2.39500      1.65324 2.12292e-006
      2.40000      1.65324 2.12743e-006
      2.40500      1.65324 2.13193e-006
      2.41000      1.65324 2.03991e-006
      2.41500      1.65324 2.14043e-006
      2.42000      1.65324 2.14493e-006
      2.42500      1.65324 2.14943e-006
      2.43000      1.65324 2.15393e-006
      2.43500      1.65324 2.15843e-006
      2.44000      1.65324 2.16293e-006
      2.44500      1.65324 2.26495e-006
      2.45000      1.65324 2.17193e-006
      2.45500      1.65324 2.17594e-006
      2.46000      1.65324 2.18044e-006
      2.46500      1.65324 2.18494e-006
      2.47000      1.65324 2.28796e-006
      2.47500      1.65324 2.19394e-006
      2.48000      1.65324 2.19844e-006
      2.48500      1.65324 2.20294e-006
      2.49000      1.65324 2.20744e-006
      2.49500      1.65324 2.21144e-006
      2.50000      1.65324 2.21594e-006
      2.50500      1.65324 2.22044e-006
      2.51000      1.65324 2.22495e-006
      2.51500      1.65324 2.22945e-006
      2.52000      1.65324 2.23345e-006
      2.52500      1.65324 2.13743e-006
      2.53000      1.65324 2.24245e-006
      2.53500      1.65324 2.24645e-006
      2.54000      1.65324 2.14993e-006
      2.54500      1.65324 2.25595e-006
      2.55000      1.65324 2.36247e-006
      2.55500      1.65324 1.95789e-006
      2.56000      1.65324 2.26945e-006
      2.56500      1.65324 2.27345e-006
      2.57000      1.65324 2.38048e-006
      2.57500      1.65324 2.28246e-006
      2.58000      1.65324 2.28696e-006
      2.58500      1.65324 2.49850e-006
      2.59000      1.65324 2.39948e-006
      2.59500      1.65324 2.50750e-006
      2.60000      1.65324 2.20044e-006
